Wavelength nm.	RawData ...
190.00	0.587402
191.00	0.569946
192.00	0.544067
193.00	0.509766
194.00	0.469482
195.00	0.418335
196.00	0.367188
197.00	0.318970
198.00	0.267212
199.00	0.223389
200.00	0.186646
201.00	0.150757
202.00	0.125977
203.00	0.107666
204.00	0.093872
205.00	0.086182
206.00	0.079956
207.00	0.076416
208.00	0.075928
209.00	0.075562
210.00	0.076782
211.00	0.077026
212.00	0.078491
213.00	0.079102
214.00	0.080078
215.00	0.082764
216.00	0.083862
217.00	0.085815
218.00	0.087280
219.00	0.088989
220.00	0.090454
221.00	0.090942
222.00	0.090454
223.00	0.089478
224.00	0.086426
225.00	0.082886
226.00	0.078369
227.00	0.073364
228.00	0.066895
229.00	0.060669
230.00	0.055054
231.00	0.049316
232.00	0.043701
233.00	0.038940
234.00	0.034302
235.00	0.030762
236.00	0.028076
237.00	0.026001
238.00	0.023193
239.00	0.021240
240.00	0.019653
241.00	0.018677
242.00	0.018188
243.00	0.017334
244.00	0.015991
245.00	0.015503
246.00	0.015137
247.00	0.015259
248.00	0.015015
249.00	0.014526
250.00	0.014282
251.00	0.013672
252.00	0.014160
253.00	0.013916
254.00	0.013794
255.00	0.014282
256.00	0.014404
257.00	0.014526
258.00	0.014526
259.00	0.014893
260.00	0.014771
261.00	0.015259
262.00	0.015381
263.00	0.015991
264.00	0.016846
265.00	0.018188
266.00	0.018433
267.00	0.020142
268.00	0.020752
269.00	0.022095
270.00	0.023682
271.00	0.024902
272.00	0.026001
273.00	0.028076
274.00	0.029419
275.00	0.030273
276.00	0.032104
277.00	0.034180
278.00	0.035645
279.00	0.037476
280.00	0.039063
281.00	0.041016
282.00	0.042725
283.00	0.043823
284.00	0.045044
285.00	0.045776
286.00	0.046753
287.00	0.045898
288.00	0.046509
289.00	0.046143
290.00	0.045898
291.00	0.044434
292.00	0.043091
293.00	0.042603
294.00	0.040527
295.00	0.038818
296.00	0.036377
297.00	0.034302
298.00	0.031982
299.00	0.029663
300.00	0.026855
301.00	0.024048
302.00	0.020630
303.00	0.018555
304.00	0.016357
305.00	0.013916
306.00	0.012085
307.00	0.009277
308.00	0.008301
309.00	0.007202
310.00	0.005859
311.00	0.005371
312.00	0.005005
313.00	0.004150
314.00	0.004028
315.00	0.003540
316.00	0.003906
317.00	0.003662
318.00	0.003418
319.00	0.003052
320.00	0.003296
321.00	0.003052
322.00	0.003052
323.00	0.003662
324.00	0.003540
325.00	0.003662
326.00	0.003174
327.00	0.003052
328.00	0.002686
329.00	0.003418
330.00	0.003174
331.00	0.002930
332.00	0.003418
333.00	0.002808
334.00	0.002808
335.00	0.002686
336.00	0.003052
337.00	0.003296
338.00	0.002930
339.00	0.003052
340.00	0.002808
341.00	0.002808
342.00	0.002808
343.00	0.002563
344.00	0.002686
345.00	0.002441
346.00	0.002563
347.00	0.002441
348.00	0.002808
349.00	0.002930
350.00	0.002563
351.00	0.002563
352.00	0.003052
353.00	0.002563
354.00	0.003052
355.00	0.002197
356.00	0.002686
357.00	0.003296
358.00	0.002930
359.00	0.003052
360.00	0.003906
361.00	0.003296
362.00	0.003052
363.00	0.002930
364.00	0.002686
365.00	0.002563
366.00	-0.001465
367.00	-0.000488
368.00	-0.000610
369.00	-0.001099
370.00	-0.000732
371.00	-0.000610
372.00	-0.001099
373.00	-0.000977
374.00	-0.000488
375.00	-0.000610
376.00	-0.000854
377.00	-0.000977
378.00	-0.001099
379.00	-0.000488
380.00	-0.000977
381.00	-0.000854
382.00	-0.000610
383.00	-0.000610
384.00	-0.000854
385.00	-0.000244
386.00	-0.000732
387.00	-0.000122
388.00	-0.000488
389.00	-0.000732
390.00	-0.000610
391.00	0.000000
392.00	-0.000488
393.00	-0.000244
394.00	-0.000244
395.00	0.000000
396.00	-0.000122
397.00	0.000000
398.00	-0.000244
399.00	0.000000
400.00	-0.000244
401.00	0.000000
402.00	-0.000122
403.00	0.000000
404.00	0.000000
405.00	0.000000
406.00	0.000000
407.00	0.000122
408.00	0.000000
409.00	0.000000
410.00	0.000000
411.00	0.000122
412.00	0.000000
413.00	0.000000
414.00	0.000000
415.00	0.000244
416.00	0.000122
417.00	-0.000122
418.00	0.000000
419.00	-0.000122
420.00	0.000000
421.00	-0.000122
422.00	0.000000
423.00	0.000000
424.00	-0.000122
425.00	0.000122
426.00	0.000244
427.00	0.000000
428.00	0.000000
429.00	0.000000
430.00	0.000000
431.00	0.000000
432.00	0.000122
433.00	0.000000
434.00	0.000366
435.00	0.000366
436.00	0.000244
437.00	0.000488
438.00	0.000610
439.00	0.000854
440.00	0.000854
441.00	0.000854
442.00	0.000977
443.00	0.001099
444.00	0.001099
445.00	0.001099
446.00	0.000977
447.00	0.000854
448.00	0.000488
449.00	0.000244
450.00	0.000366
451.00	0.000000
452.00	0.000000
453.00	-0.000244
454.00	-0.000122
455.00	-0.000488
456.00	-0.000366
457.00	0.000000
458.00	-0.000244
459.00	-0.000366
460.00	-0.000366
461.00	-0.000122
462.00	0.000000
463.00	0.000000
464.00	0.000122
465.00	0.000000
466.00	0.000244
467.00	0.000122
468.00	0.000000
469.00	0.000000
470.00	0.000000
471.00	0.000000
472.00	-0.000122
473.00	-0.000122
474.00	0.000000
475.00	0.000000
476.00	-0.000244
477.00	-0.000122
478.00	-0.000122
479.00	0.000000
480.00	-0.000122
481.00	-0.000244
482.00	-0.000122
483.00	0.000000
484.00	-0.000122
485.00	-0.000244
486.00	0.000000
487.00	0.000000
488.00	0.000000
489.00	0.000000
490.00	0.000000
491.00	0.000000
492.00	0.000000
493.00	0.000000
494.00	0.000122
495.00	0.000122
496.00	0.000000
497.00	0.000000
498.00	0.000122
499.00	0.000122
500.00	0.000000
501.00	0.000122
502.00	0.000000
503.00	0.000000
504.00	0.000000
505.00	0.000000
506.00	0.000244
507.00	0.000244
508.00	0.000244
509.00	0.000000
510.00	0.000000
511.00	0.000122
512.00	0.000000
513.00	0.000244
514.00	0.000122
515.00	0.000244
516.00	0.000244
517.00	0.000366
518.00	0.000244
519.00	0.000122
520.00	0.000244
521.00	0.000244
522.00	0.000244
523.00	0.000244
524.00	0.000244
525.00	0.000366
526.00	0.000244
527.00	0.000488
528.00	0.000488
529.00	0.000366
530.00	0.000366
531.00	0.000244
532.00	0.000366
533.00	0.000244
534.00	0.000244
535.00	0.000366
536.00	0.000244
537.00	-0.001831
538.00	-0.001831
539.00	-0.001587
540.00	-0.001465
541.00	-0.001221
542.00	-0.001221
543.00	-0.001221
544.00	-0.001099
545.00	-0.000854
546.00	-0.000854
547.00	-0.000732
548.00	-0.000366
549.00	-0.000732
550.00	-0.000610
551.00	-0.000488
552.00	-0.000488
553.00	-0.000366
554.00	-0.000488
555.00	-0.000488
556.00	-0.000366
557.00	-0.000244
558.00	-0.000488
559.00	-0.000488
560.00	-0.000366
561.00	-0.000244
562.00	-0.000366
563.00	-0.000366
564.00	-0.000366
565.00	-0.000122
566.00	-0.000366
567.00	-0.000244
568.00	-0.000366
569.00	-0.000122
570.00	-0.000488
571.00	-0.000366
572.00	-0.000366
573.00	-0.000366
574.00	-0.000244
575.00	-0.000244
576.00	-0.000366
577.00	-0.000366
578.00	-0.000366
579.00	-0.000366
580.00	-0.000366
581.00	-0.000366
582.00	-0.000366
583.00	-0.000488
584.00	-0.000244
585.00	-0.000244
586.00	-0.000366
587.00	-0.000366
588.00	-0.000488
589.00	-0.000488
590.00	-0.000488
591.00	-0.000488
592.00	-0.000488
593.00	-0.000366
594.00	-0.000244
595.00	-0.000366
596.00	-0.000244
597.00	-0.000366
598.00	-0.000366
599.00	-0.000488
600.00	-0.000488
601.00	-0.000488
602.00	-0.000610
603.00	-0.000366
604.00	-0.000488
605.00	-0.000488
606.00	-0.000488
607.00	-0.000366
608.00	-0.000610
609.00	-0.000610
610.00	-0.000610
611.00	-0.000488
612.00	-0.000610
613.00	-0.000610
614.00	-0.000610
615.00	-0.000610
616.00	-0.000488
617.00	-0.000610
618.00	-0.000610
619.00	-0.000488
620.00	-0.000366
621.00	-0.000610
622.00	-0.000488
623.00	-0.000610
624.00	-0.000366
625.00	-0.000488
626.00	-0.000732
627.00	-0.000610
628.00	-0.000610
629.00	-0.000488
630.00	-0.000488
631.00	-0.000610
632.00	-0.000610
633.00	-0.000610
634.00	-0.000854
635.00	-0.000854
636.00	-0.000977
637.00	-0.000977
638.00	-0.001099
639.00	-0.001221
640.00	-0.000854
641.00	-0.000854
642.00	-0.001099
643.00	-0.001099
644.00	-0.000977
645.00	-0.000854
646.00	-0.000732
647.00	-0.000488
648.00	-0.000610
649.00	-0.000732
650.00	-0.000488
651.00	-0.000610
652.00	-0.000610
653.00	-0.000610
654.00	-0.000732
655.00	-0.000610
656.00	-0.000732
657.00	-0.000610
658.00	-0.000732
659.00	-0.000732
660.00	-0.000732
661.00	-0.000610
662.00	-0.000732
663.00	-0.000610
664.00	-0.000610
665.00	-0.000610
666.00	-0.000732
667.00	-0.000732
668.00	-0.000610
669.00	-0.000854
670.00	-0.000732
671.00	-0.000854
672.00	-0.000732
673.00	-0.000732
674.00	-0.000732
675.00	-0.000854
676.00	-0.000977
677.00	-0.000610
678.00	-0.000732
679.00	-0.000854
680.00	-0.000854
681.00	-0.000854
682.00	-0.000854
683.00	-0.000977
684.00	-0.001099
685.00	-0.000977
686.00	-0.000854
687.00	-0.000977
688.00	-0.000854
689.00	-0.000977
690.00	-0.000977
691.00	-0.000854
692.00	-0.000854
693.00	-0.000732
694.00	-0.000854
695.00	-0.000854
696.00	-0.000854
697.00	-0.000854
698.00	-0.000854
699.00	-0.000977
700.00	-0.000854
701.00	-0.000854
702.00	-0.000732
703.00	-0.000854
704.00	-0.000854
705.00	-0.000977
706.00	-0.001099
707.00	-0.000977
708.00	-0.001099
709.00	-0.000732
710.00	-0.000977
711.00	-0.000977
712.00	-0.000854
713.00	-0.000732
714.00	-0.000977
715.00	-0.000977
716.00	-0.000854
717.00	-0.000854
718.00	-0.000854
719.00	-0.000854
720.00	-0.000854
721.00	-0.000854
722.00	-0.000732
723.00	-0.000977
724.00	-0.000732
725.00	-0.000854
726.00	-0.000854
727.00	-0.000854
728.00	-0.000977
729.00	-0.000854
730.00	-0.000854
731.00	-0.001099
732.00	-0.000977
733.00	-0.000977
734.00	-0.000977
735.00	-0.001099
736.00	-0.000854
737.00	-0.000854
738.00	-0.000977
739.00	-0.000977
740.00	-0.001221
741.00	-0.001099
742.00	-0.001221
743.00	-0.001099
744.00	-0.001099
745.00	-0.000977
746.00	-0.000977
747.00	-0.000977
748.00	-0.001099
749.00	-0.001099
750.00	-0.001221
751.00	-0.001099
752.00	-0.000977
753.00	-0.000977
754.00	-0.001099
755.00	-0.001221
756.00	-0.001221
757.00	-0.001099
758.00	-0.001099
759.00	-0.001099
760.00	-0.001099
761.00	-0.001587
762.00	-0.001465
763.00	-0.001465
764.00	-0.001587
765.00	-0.001587
766.00	-0.001465
767.00	-0.001343
768.00	-0.001343
769.00	-0.001343
770.00	-0.001343
771.00	-0.001343
772.00	-0.001465
773.00	-0.001343
774.00	-0.001343
775.00	-0.001465
776.00	-0.001343
777.00	-0.001343
778.00	-0.001221
779.00	-0.001343
780.00	-0.001343
781.00	-0.001343
782.00	-0.001221
783.00	-0.001099
784.00	-0.001343
785.00	-0.001221
786.00	-0.001343
787.00	-0.001465
788.00	-0.001343
789.00	-0.001465
790.00	-0.001465
791.00	-0.001465
792.00	-0.001465
793.00	-0.001343
794.00	-0.001343
795.00	-0.001343
796.00	-0.001343
797.00	-0.001343
798.00	-0.001221
799.00	-0.001465
800.00	-0.001465
801.00	-0.001343
802.00	-0.001343
803.00	-0.001343
804.00	-0.001343
805.00	-0.001343
806.00	-0.001343
807.00	-0.001343
808.00	-0.001221
809.00	-0.001343
810.00	-0.001343
811.00	-0.001465
812.00	-0.001465
813.00	-0.001465
814.00	-0.001343
815.00	-0.001465
816.00	-0.001343
817.00	-0.001465
818.00	-0.001343
819.00	-0.001465
820.00	-0.001465
821.00	-0.001343
822.00	-0.001343
823.00	-0.001465
824.00	-0.001343
825.00	-0.001343
826.00	-0.001343
827.00	-0.001343
828.00	-0.001343
829.00	-0.001465
830.00	-0.001343
831.00	-0.001221
832.00	-0.001221
833.00	-0.001221
834.00	-0.001465
835.00	-0.001343
836.00	-0.001343
837.00	-0.001343
838.00	-0.001343
839.00	-0.001221
840.00	-0.001343
841.00	-0.001343
842.00	-0.001343
843.00	-0.001343
844.00	-0.001343
845.00	-0.001343
846.00	-0.001465
847.00	-0.001343
848.00	-0.001221
849.00	-0.001343
850.00	-0.001221
851.00	-0.001221
852.00	-0.001343
853.00	-0.001221
854.00	-0.001343
855.00	-0.001221
856.00	-0.001099
857.00	-0.001099
858.00	-0.001221
859.00	-0.001099
860.00	-0.001099
861.00	-0.001099
862.00	-0.001099
863.00	-0.001099
864.00	-0.001099
865.00	-0.001343
866.00	-0.001221
867.00	-0.001221
868.00	-0.001221
869.00	-0.001099
870.00	-0.001221
871.00	-0.001221
872.00	-0.001099
873.00	-0.001221
874.00	-0.001099
875.00	-0.001221
876.00	-0.001099
877.00	-0.001343
878.00	-0.001099
879.00	-0.000854
880.00	-0.001099
881.00	-0.001099
882.00	-0.000732
883.00	-0.000977
884.00	-0.000854
885.00	-0.000732
886.00	-0.000854
887.00	-0.000732
888.00	-0.000977
889.00	-0.000732
890.00	-0.000977
891.00	-0.000854
892.00	-0.000732
893.00	-0.000977
894.00	-0.000732
895.00	-0.000977
896.00	-0.000977
897.00	-0.000732
898.00	-0.000732
899.00	-0.000610
900.00	-0.000488