Wavelength nm.	RawData ...
190.00	2.177124
191.00	2.292358
192.00	2.409302
193.00	2.500366
194.00	2.529419
195.00	2.594849
196.00	2.649292
197.00	2.651001
198.00	2.654175
199.00	2.686768
200.00	2.639648
201.00	2.529297
202.00	2.363525
203.00	2.160034
204.00	1.952881
205.00	1.786011
206.00	1.652344
207.00	1.543823
208.00	1.464966
209.00	1.411865
210.00	1.381592
211.00	1.362183
212.00	1.350098
213.00	1.341675
214.00	1.333862
215.00	1.322388
216.00	1.303589
217.00	1.265869
218.00	1.212891
219.00	1.146606
220.00	1.073120
221.00	1.000244
222.00	0.916626
223.00	0.832397
224.00	0.750366
225.00	0.672974
226.00	0.600830
227.00	0.525024
228.00	0.454102
229.00	0.388306
230.00	0.330566
231.00	0.280884
232.00	0.234009
233.00	0.194336
234.00	0.160767
235.00	0.134766
236.00	0.113281
237.00	0.096924
238.00	0.083008
239.00	0.071533
240.00	0.062500
241.00	0.056396
242.00	0.052490
243.00	0.049561
244.00	0.047485
245.00	0.047607
246.00	0.048340
247.00	0.050415
248.00	0.053223
249.00	0.057739
250.00	0.063232
251.00	0.069824
252.00	0.077148
253.00	0.087158
254.00	0.097534
255.00	0.109863
256.00	0.122681
257.00	0.136108
258.00	0.153320
259.00	0.171631
260.00	0.191650
261.00	0.211792
262.00	0.232666
263.00	0.256226
264.00	0.281738
265.00	0.308105
266.00	0.332886
267.00	0.357300
268.00	0.382813
269.00	0.406982
270.00	0.430908
271.00	0.450806
272.00	0.467041
273.00	0.481323
274.00	0.489136
275.00	0.493042
276.00	0.489990
277.00	0.479736
278.00	0.465576
279.00	0.445190
280.00	0.418213
281.00	0.385132
282.00	0.347168
283.00	0.306641
284.00	0.258545
285.00	0.209595
286.00	0.165039
287.00	0.126099
288.00	0.094604
289.00	0.067383
290.00	0.046753
291.00	0.031372
292.00	0.021851
293.00	0.015381
294.00	0.009888
295.00	0.007568
296.00	0.005493
297.00	0.004272
298.00	0.003662
299.00	0.003296
300.00	0.003174
301.00	0.002808
302.00	0.002441
303.00	0.002563
304.00	0.002319
305.00	0.002686
306.00	0.002319
307.00	0.001831
308.00	0.001953
309.00	0.001953
310.00	0.001709
311.00	0.002197
312.00	0.002197
313.00	0.001831
314.00	0.001587
315.00	0.001587
316.00	0.000854
317.00	0.001221
318.00	0.001831
319.00	0.001709
320.00	0.002075
321.00	0.001831
322.00	0.001709
323.00	0.001953
324.00	0.001831
325.00	0.001465
326.00	0.001465
327.00	0.001343
328.00	0.001587
329.00	0.001465
330.00	0.001465
331.00	0.000977
332.00	0.001709
333.00	0.001221
334.00	0.000977
335.00	0.000488
336.00	0.000000
337.00	0.000610
338.00	0.000366
339.00	0.000366
340.00	0.000488
341.00	0.000122
342.00	0.000000
343.00	-0.000244
344.00	0.000000
345.00	0.000000
346.00	-0.000122
347.00	-0.000488
348.00	-0.000122
349.00	0.000000
350.00	-0.000244
351.00	0.000000
352.00	-0.000488
353.00	0.000000
354.00	0.000122
355.00	-0.000244
356.00	-0.000366
357.00	0.000488
358.00	0.000366
359.00	0.000000
360.00	0.000732
361.00	0.001343
362.00	0.000244
363.00	0.000000
364.00	0.000000
365.00	0.001099
366.00	-0.002563
367.00	-0.002197
368.00	-0.002197
369.00	-0.002197
370.00	-0.002319
371.00	-0.001709
372.00	-0.002075
373.00	-0.002441
374.00	-0.001343
375.00	-0.001465
376.00	-0.002197
377.00	-0.001953
378.00	-0.001831
379.00	-0.001465
380.00	-0.002319
381.00	-0.001831
382.00	-0.001831
383.00	-0.001587
384.00	-0.001831
385.00	-0.001465
386.00	-0.001831
387.00	-0.001221
388.00	-0.001831
389.00	-0.001587
390.00	-0.001587
391.00	-0.001221
392.00	-0.001587
393.00	-0.001221
394.00	-0.001343
395.00	-0.000977
396.00	-0.001099
397.00	-0.000610
398.00	-0.000977
399.00	-0.000366
400.00	-0.001099
401.00	-0.000977
402.00	-0.000732
403.00	-0.000732
404.00	-0.000732
405.00	-0.000610
406.00	-0.000732
407.00	-0.000488
408.00	-0.000610
409.00	-0.000610
410.00	-0.000610
411.00	-0.000488
412.00	-0.000732
413.00	-0.000732
414.00	-0.000610
415.00	-0.000610
416.00	-0.000488
417.00	-0.001343
418.00	-0.000977
419.00	-0.000977
420.00	-0.001343
421.00	-0.001099
422.00	-0.000977
423.00	-0.001221
424.00	-0.001099
425.00	-0.000488
426.00	-0.000732
427.00	-0.000854
428.00	-0.000610
429.00	-0.000977
430.00	-0.000610
431.00	-0.000366
432.00	-0.000610
433.00	-0.000610
434.00	-0.000244
435.00	-0.000244
436.00	-0.000122
437.00	-0.000122
438.00	0.000000
439.00	0.000000
440.00	0.000000
441.00	0.000000
442.00	0.000000
443.00	0.000244
444.00	0.000122
445.00	0.000122
446.00	0.000000
447.00	-0.000122
448.00	-0.000122
449.00	-0.000366
450.00	-0.000732
451.00	-0.000854
452.00	-0.000977
453.00	-0.001099
454.00	-0.000977
455.00	-0.001099
456.00	-0.001221
457.00	-0.000732
458.00	-0.000977
459.00	-0.001099
460.00	-0.000854
461.00	-0.000610
462.00	-0.000488
463.00	-0.000610
464.00	-0.000610
465.00	-0.000488
466.00	-0.000366
467.00	-0.000366
468.00	-0.000366
469.00	-0.000610
470.00	-0.000488
471.00	-0.000732
472.00	-0.000732
473.00	-0.000732
474.00	-0.000854
475.00	-0.001099
476.00	-0.000854
477.00	-0.000854
478.00	-0.000732
479.00	-0.000854
480.00	-0.000732
481.00	-0.000610
482.00	-0.000488
483.00	-0.000732
484.00	-0.000488
485.00	-0.000488
486.00	-0.000488
487.00	-0.000610
488.00	-0.000610
489.00	-0.000732
490.00	-0.000610
491.00	-0.000488
492.00	-0.000610
493.00	-0.000610
494.00	-0.000366
495.00	-0.000610
496.00	-0.000488
497.00	-0.000366
498.00	-0.000244
499.00	-0.000488
500.00	-0.000488
501.00	-0.000488
502.00	-0.000122
503.00	-0.000122
504.00	-0.000244
505.00	-0.000366
506.00	-0.000244
507.00	-0.000244
508.00	-0.000244
509.00	-0.000244
510.00	-0.000122
511.00	-0.000366
512.00	-0.000244
513.00	-0.000122
514.00	-0.000244
515.00	-0.000244
516.00	-0.000122
517.00	-0.000122
518.00	-0.000122
519.00	0.000000
520.00	0.000000
521.00	-0.000122
522.00	-0.000122
523.00	-0.000122
524.00	-0.000122
525.00	-0.000122
526.00	0.000000
527.00	-0.000122
528.00	0.000000
529.00	0.000000
530.00	0.000000
531.00	0.000000
532.00	0.000000
533.00	0.000000
534.00	-0.000122
535.00	0.000000
536.00	0.000000
537.00	-0.001221
538.00	-0.001099
539.00	-0.001465
540.00	-0.001343
541.00	-0.001221
542.00	-0.000977
543.00	-0.001221
544.00	-0.000977
545.00	-0.001099
546.00	-0.001099
547.00	-0.001099
548.00	-0.000977
549.00	-0.000732
550.00	-0.000854
551.00	-0.000854
552.00	-0.000854
553.00	-0.000977
554.00	-0.000854
555.00	-0.000977
556.00	-0.000732
557.00	-0.000732
558.00	-0.000854
559.00	-0.000977
560.00	-0.000854
561.00	-0.000732
562.00	-0.000977
563.00	-0.000854
564.00	-0.000732
565.00	-0.000732
566.00	-0.000854
567.00	-0.000732
568.00	-0.000977
569.00	-0.000732
570.00	-0.000977
571.00	-0.000977
572.00	-0.000977
573.00	-0.000854
574.00	-0.000977
575.00	-0.000854
576.00	-0.000977
577.00	-0.000732
578.00	-0.000732
579.00	-0.000732
580.00	-0.000732
581.00	-0.000854
582.00	-0.000854
583.00	-0.000977
584.00	-0.000854
585.00	-0.000854
586.00	-0.000977
587.00	-0.000854
588.00	-0.000732
589.00	-0.000854
590.00	-0.000732
591.00	-0.000977
592.00	-0.000732
593.00	-0.000732
594.00	-0.000854
595.00	-0.000977
596.00	-0.000854
597.00	-0.000854
598.00	-0.000732
599.00	-0.000977
600.00	-0.000854
601.00	-0.000854
602.00	-0.000854
603.00	-0.000854
604.00	-0.000854
605.00	-0.000732
606.00	-0.000977
607.00	-0.000854
608.00	-0.000854
609.00	-0.000854
610.00	-0.000854
611.00	-0.000977
612.00	-0.000854
613.00	-0.000977
614.00	-0.000977
615.00	-0.000854
616.00	-0.000977
617.00	-0.000977
618.00	-0.000854
619.00	-0.000977
620.00	-0.000854
621.00	-0.000977
622.00	-0.000977
623.00	-0.001099
624.00	-0.000854
625.00	-0.000977
626.00	-0.000977
627.00	-0.000854
628.00	-0.000977
629.00	-0.000977
630.00	-0.001099
631.00	-0.000977
632.00	-0.001099
633.00	-0.001099
634.00	-0.001343
635.00	-0.001099
636.00	-0.001343
637.00	-0.001221
638.00	-0.001465
639.00	-0.001587
640.00	-0.001343
641.00	-0.001221
642.00	-0.001221
643.00	-0.001099
644.00	-0.000854
645.00	-0.000854
646.00	-0.000854
647.00	-0.000732
648.00	-0.000732
649.00	-0.000732
650.00	-0.000854
651.00	-0.000610
652.00	-0.000854
653.00	-0.000732
654.00	-0.000610
655.00	-0.000732
656.00	-0.000732
657.00	-0.000610
658.00	-0.000610
659.00	-0.000854
660.00	-0.000732
661.00	-0.000732
662.00	-0.000732
663.00	-0.000977
664.00	-0.000977
665.00	-0.000732
666.00	-0.000610
667.00	-0.000610
668.00	-0.000732
669.00	-0.000732
670.00	-0.000854
671.00	-0.000610
672.00	-0.000732
673.00	-0.000732
674.00	-0.000732
675.00	-0.000854
676.00	-0.000732
677.00	-0.000977
678.00	-0.000732
679.00	-0.000732
680.00	-0.000488
681.00	-0.000488
682.00	-0.000732
683.00	-0.000610
684.00	-0.000610
685.00	-0.000610
686.00	-0.000732
687.00	-0.000732
688.00	-0.000610
689.00	-0.000610
690.00	-0.000732
691.00	-0.000732
692.00	-0.000732
693.00	-0.000854
694.00	-0.000854
695.00	-0.000610
696.00	-0.000854
697.00	-0.000977
698.00	-0.000854
699.00	-0.000854
700.00	-0.000854
701.00	-0.000854
702.00	-0.000854
703.00	-0.000854
704.00	-0.000732
705.00	-0.000977
706.00	-0.000854
707.00	-0.000610
708.00	-0.000732
709.00	-0.000854
710.00	-0.000854
711.00	-0.000854
712.00	-0.000854
713.00	-0.000732
714.00	-0.000732
715.00	-0.000977
716.00	-0.000854
717.00	-0.000854
718.00	-0.000732
719.00	-0.000732
720.00	-0.000488
721.00	-0.000854
722.00	-0.000732
723.00	-0.000732
724.00	-0.000732
725.00	-0.000732
726.00	-0.000610
727.00	-0.000732
728.00	-0.000732
729.00	-0.000610
730.00	-0.000732
731.00	-0.000610
732.00	-0.000610
733.00	-0.000732
734.00	-0.000732
735.00	-0.000732
736.00	-0.000854
737.00	-0.000610
738.00	-0.000732
739.00	-0.000732
740.00	-0.000854
741.00	-0.000732
742.00	-0.000610
743.00	-0.000732
744.00	-0.000732
745.00	-0.000854
746.00	-0.000854
747.00	-0.000854
748.00	-0.000732
749.00	-0.000732
750.00	-0.000732
751.00	-0.000854
752.00	-0.000854
753.00	-0.000977
754.00	-0.000854
755.00	-0.000977
756.00	-0.000732
757.00	-0.000977
758.00	-0.000854
759.00	-0.000977
760.00	-0.000977
761.00	-0.000854
762.00	-0.001099
763.00	-0.001099
764.00	-0.000977
765.00	-0.000977
766.00	-0.000977
767.00	-0.001099
768.00	-0.001221
769.00	-0.001099
770.00	-0.000977
771.00	-0.001099
772.00	-0.001221
773.00	-0.001221
774.00	-0.001099
775.00	-0.000977
776.00	-0.000977
777.00	-0.000977
778.00	-0.001099
779.00	-0.001099
780.00	-0.001099
781.00	-0.000977
782.00	-0.000977
783.00	-0.001099
784.00	-0.001099
785.00	-0.000977
786.00	-0.000977
787.00	-0.001221
788.00	-0.001099
789.00	-0.001099
790.00	-0.001099
791.00	-0.001221
792.00	-0.001221
793.00	-0.001221
794.00	-0.001099
795.00	-0.001221
796.00	-0.001099
797.00	-0.001343
798.00	-0.001343
799.00	-0.001221
800.00	-0.001343
801.00	-0.001221
802.00	-0.001343
803.00	-0.001099
804.00	-0.001099
805.00	-0.001343
806.00	-0.001221
807.00	-0.001343
808.00	-0.001221
809.00	-0.001343
810.00	-0.001099
811.00	-0.001343
812.00	-0.001221
813.00	-0.001343
814.00	-0.001221
815.00	-0.001221
816.00	-0.001221
817.00	-0.001343
818.00	-0.001343
819.00	-0.001221
820.00	-0.001221
821.00	-0.001221
822.00	-0.001221
823.00	-0.001099
824.00	-0.001099
825.00	-0.001099
826.00	-0.001221
827.00	-0.000977
828.00	-0.001099
829.00	-0.001099
830.00	-0.001221
831.00	-0.001099
832.00	-0.001099
833.00	-0.001099
834.00	-0.001221
835.00	-0.001221
836.00	-0.000977
837.00	-0.001221
838.00	-0.000977
839.00	-0.000977
840.00	-0.000977
841.00	-0.000977
842.00	-0.000977
843.00	-0.001099
844.00	-0.000977
845.00	-0.001099
846.00	-0.001099
847.00	-0.000977
848.00	-0.000854
849.00	-0.000977
850.00	-0.000977
851.00	-0.001099
852.00	-0.001099
853.00	-0.000977
854.00	-0.001099
855.00	-0.001099
856.00	-0.001099
857.00	-0.000977
858.00	-0.001099
859.00	-0.001099
860.00	-0.000977
861.00	-0.000854
862.00	-0.001099
863.00	-0.000977
864.00	-0.000854
865.00	-0.000854
866.00	-0.000977
867.00	-0.001099
868.00	-0.000732
869.00	-0.000854
870.00	-0.000977
871.00	-0.000854
872.00	-0.000977
873.00	-0.000854
874.00	-0.000854
875.00	-0.000977
876.00	-0.000977
877.00	-0.000854
878.00	-0.000854
879.00	-0.000732
880.00	-0.000732
881.00	-0.000854
882.00	-0.000854
883.00	-0.000732
884.00	-0.000854
885.00	-0.000977
886.00	-0.000732
887.00	-0.000732
888.00	-0.000977
889.00	-0.000854
890.00	-0.000732
891.00	-0.000732
892.00	-0.000732
893.00	-0.000732
894.00	-0.000732
895.00	-0.000610
896.00	-0.000610
897.00	-0.000610
898.00	-0.000610
899.00	-0.000732
900.00	-0.000977