Wavelength nm.	RawData ...
190.00	2.450317
191.00	2.615479
192.00	2.731934
193.00	2.791870
194.00	2.858154
195.00	2.922607
196.00	2.921021
197.00	2.958008
198.00	2.993408
199.00	2.999390
200.00	3.024170
201.00	3.010010
202.00	3.037231
203.00	3.061890
204.00	3.090332
205.00	3.117798
206.00	3.064209
207.00	3.094727
208.00	3.203857
209.00	3.151978
210.00	3.179810
211.00	3.202515
212.00	3.227417
213.00	3.182129
214.00	3.270386
215.00	3.223511
216.00	3.240234
217.00	3.258179
218.00	3.216919
219.00	3.289673
220.00	3.301880
221.00	3.253662
222.00	3.263916
223.00	3.273804
224.00	3.231567
225.00	3.239868
226.00	3.246582
227.00	3.254639
228.00	3.261841
229.00	3.268555
230.00	3.275024
231.00	3.192871
232.00	3.197998
233.00	3.129639
234.00	2.967773
235.00	2.770874
236.00	2.524292
237.00	2.243774
238.00	1.945679
239.00	1.662354
240.00	1.406860
241.00	1.195313
242.00	1.019775
243.00	0.843506
244.00	0.695801
245.00	0.570068
246.00	0.466309
247.00	0.384521
248.00	0.307373
249.00	0.243530
250.00	0.191772
251.00	0.151855
252.00	0.119507
253.00	0.092163
254.00	0.071777
255.00	0.056030
256.00	0.044189
257.00	0.036255
258.00	0.029175
259.00	0.024048
260.00	0.020020
261.00	0.017456
262.00	0.016235
263.00	0.014160
264.00	0.012939
265.00	0.012451
266.00	0.011841
267.00	0.012451
268.00	0.011597
269.00	0.011108
270.00	0.011475
271.00	0.010986
272.00	0.010864
273.00	0.010620
274.00	0.011108
275.00	0.010498
276.00	0.009521
277.00	0.009888
278.00	0.009521
279.00	0.009888
280.00	0.010010
281.00	0.009766
282.00	0.009521
283.00	0.009155
284.00	0.009399
285.00	0.008789
286.00	0.009155
287.00	0.008667
288.00	0.008911
289.00	0.008545
290.00	0.008179
291.00	0.007568
292.00	0.007690
293.00	0.007935
294.00	0.007813
295.00	0.007690
296.00	0.007935
297.00	0.007935
298.00	0.007935
299.00	0.007690
300.00	0.007446
301.00	0.007446
302.00	0.007568
303.00	0.007446
304.00	0.007324
305.00	0.007446
306.00	0.007324
307.00	0.006226
308.00	0.005981
309.00	0.006348
310.00	0.005981
311.00	0.005615
312.00	0.005737
313.00	0.005615
314.00	0.005127
315.00	0.005249
316.00	0.005493
317.00	0.005371
318.00	0.005371
319.00	0.005493
320.00	0.005493
321.00	0.005371
322.00	0.005249
323.00	0.004761
324.00	0.004761
325.00	0.004761
326.00	0.004517
327.00	0.003052
328.00	0.004272
329.00	0.004517
330.00	0.004639
331.00	0.004517
332.00	0.004761
333.00	0.004517
334.00	0.004761
335.00	0.004150
336.00	0.004395
337.00	0.004395
338.00	0.004395
339.00	0.004395
340.00	0.004272
341.00	0.004761
342.00	0.004517
343.00	0.004517
344.00	0.004028
345.00	0.004517
346.00	0.004639
347.00	0.004395
348.00	0.005005
349.00	0.004517
350.00	0.004150
351.00	0.004639
352.00	0.005127
353.00	0.005371
354.00	0.005005
355.00	0.005005
356.00	0.005005
357.00	0.006104
358.00	0.005737
359.00	0.005493
360.00	0.006592
361.00	0.006470
362.00	0.006104
363.00	0.006348
364.00	0.006714
365.00	0.003418
366.00	-0.002563
367.00	-0.002319
368.00	-0.002075
369.00	-0.002319
370.00	-0.002441
371.00	-0.001709
372.00	-0.002075
373.00	-0.002319
374.00	-0.001343
375.00	-0.001343
376.00	-0.001221
377.00	-0.001953
378.00	-0.001709
379.00	-0.001343
380.00	-0.001953
381.00	-0.001465
382.00	-0.001831
383.00	-0.001465
384.00	-0.001465
385.00	-0.000854
386.00	-0.001221
387.00	-0.000610
388.00	-0.000854
389.00	-0.001099
390.00	-0.000732
391.00	-0.000610
392.00	-0.000854
393.00	-0.000610
394.00	-0.000732
395.00	-0.000366
396.00	-0.000366
397.00	0.000000
398.00	-0.000366
399.00	0.000000
400.00	-0.000122
401.00	-0.000122
402.00	0.000000
403.00	0.000000
404.00	0.000000
405.00	0.000000
406.00	0.000000
407.00	0.000122
408.00	0.000000
409.00	0.000000
410.00	0.000000
411.00	0.000122
412.00	0.000000
413.00	0.000000
414.00	0.000122
415.00	0.000000
416.00	0.000000
417.00	-0.000488
418.00	0.000000
419.00	-0.000488
420.00	-0.000488
421.00	-0.000366
422.00	-0.000122
423.00	-0.000366
424.00	-0.000366
425.00	-0.000122
426.00	-0.000122
427.00	-0.000366
428.00	-0.000122
429.00	-0.000366
430.00	0.000000
431.00	-0.000244
432.00	-0.000122
433.00	0.000000
434.00	0.000366
435.00	0.000000
436.00	0.000122
437.00	0.000244
438.00	0.000488
439.00	0.000488
440.00	0.000732
441.00	0.000854
442.00	0.000854
443.00	0.000977
444.00	0.001099
445.00	0.001221
446.00	0.001221
447.00	0.000854
448.00	0.000610
449.00	0.000366
450.00	0.000366
451.00	0.000000
452.00	0.000000
453.00	-0.000122
454.00	0.000000
455.00	-0.000366
456.00	-0.000244
457.00	0.000000
458.00	-0.000122
459.00	-0.000366
460.00	-0.000122
461.00	0.000000
462.00	0.000000
463.00	0.000000
464.00	0.000000
465.00	0.000122
466.00	0.000244
467.00	0.000488
468.00	0.000488
469.00	0.000244
470.00	0.000488
471.00	0.000122
472.00	0.000000
473.00	0.000000
474.00	0.000122
475.00	0.000122
476.00	0.000000
477.00	0.000000
478.00	0.000122
479.00	0.000000
480.00	0.000000
481.00	0.000122
482.00	0.000000
483.00	0.000000
484.00	0.000000
485.00	0.000000
486.00	0.000122
487.00	0.000000
488.00	0.000000
489.00	0.000000
490.00	0.000000
491.00	0.000000
492.00	0.000000
493.00	0.000000
494.00	0.000000
495.00	0.000366
496.00	0.000000
497.00	0.000000
498.00	0.000000
499.00	0.000000
500.00	0.000000
501.00	0.000122
502.00	0.000122
503.00	0.000122
504.00	0.000000
505.00	0.000122
506.00	0.000122
507.00	0.000000
508.00	0.000000
509.00	0.000122
510.00	0.000122
511.00	0.000244
512.00	0.000122
513.00	0.000122
514.00	0.000000
515.00	0.000122
516.00	0.000366
517.00	0.000366
518.00	0.000366
519.00	0.000366
520.00	0.000244
521.00	0.000366
522.00	0.000366
523.00	0.000366
524.00	0.000366
525.00	0.000122
526.00	0.000488
527.00	0.000366
528.00	0.000366
529.00	0.000488
530.00	0.000488
531.00	0.000244
532.00	0.000244
533.00	0.000122
534.00	0.000244
535.00	0.000366
536.00	0.000000
537.00	-0.000977
538.00	-0.001221
539.00	-0.001099
540.00	-0.000854
541.00	-0.000610
542.00	-0.000854
543.00	-0.000610
544.00	-0.000732
545.00	-0.000488
546.00	-0.000610
547.00	-0.000610
548.00	-0.000244
549.00	-0.000122
550.00	-0.000244
551.00	-0.000488
552.00	-0.000244
553.00	-0.000244
554.00	-0.000366
555.00	-0.000122
556.00	-0.000488
557.00	-0.000366
558.00	-0.000244
559.00	-0.000366
560.00	-0.000366
561.00	0.000000
562.00	-0.000366
563.00	-0.000488
564.00	-0.000366
565.00	-0.000244
566.00	-0.000366
567.00	-0.000366
568.00	-0.000488
569.00	-0.000366
570.00	-0.000488
571.00	-0.000610
572.00	-0.000366
573.00	-0.000366
574.00	-0.000366
575.00	-0.000488
576.00	-0.000488
577.00	-0.000488
578.00	-0.000610
579.00	-0.000366
580.00	-0.000244
581.00	-0.000488
582.00	-0.000488
583.00	-0.000366
584.00	-0.000488
585.00	-0.000366
586.00	-0.000366
587.00	-0.000488
588.00	-0.000610
589.00	-0.000488
590.00	-0.000366
591.00	-0.000488
592.00	-0.000488
593.00	-0.000122
594.00	-0.000244
595.00	-0.000366
596.00	-0.000366
597.00	-0.000244
598.00	-0.000244
599.00	-0.000488
600.00	-0.000488
601.00	-0.000244
602.00	-0.000488
603.00	-0.000488
604.00	-0.000366
605.00	-0.000366
606.00	-0.000732
607.00	-0.000366
608.00	-0.000366
609.00	-0.000366
610.00	-0.000488
611.00	-0.000610
612.00	-0.000366
613.00	-0.000366
614.00	-0.000366
615.00	-0.000488
616.00	-0.000366
617.00	-0.000488
618.00	-0.000488
619.00	-0.000610
620.00	-0.000488
621.00	-0.000366
622.00	-0.000366
623.00	-0.000366
624.00	-0.000488
625.00	-0.000488
626.00	-0.000366
627.00	-0.000366
628.00	-0.000366
629.00	-0.000488
630.00	-0.000488
631.00	-0.000488
632.00	-0.000488
633.00	-0.000488
634.00	-0.000610
635.00	-0.000732
636.00	-0.000854
637.00	-0.000854
638.00	-0.001099
639.00	-0.001221
640.00	-0.000732
641.00	-0.000977
642.00	-0.000977
643.00	-0.001099
644.00	-0.000854
645.00	-0.000854
646.00	-0.000732
647.00	-0.000732
648.00	-0.000488
649.00	-0.000488
650.00	-0.000610
651.00	-0.000488
652.00	-0.000366
653.00	-0.000610
654.00	-0.000488
655.00	-0.000610
656.00	-0.000732
657.00	-0.000488
658.00	-0.000610
659.00	-0.000732
660.00	-0.000610
661.00	-0.000610
662.00	-0.000854
663.00	-0.000732
664.00	-0.000732
665.00	-0.000854
666.00	-0.000854
667.00	-0.000977
668.00	-0.000732
669.00	-0.000732
670.00	-0.000732
671.00	-0.000732
672.00	-0.000732
673.00	-0.000854
674.00	-0.001099
675.00	-0.000977
676.00	-0.000732
677.00	-0.000977
678.00	-0.000977
679.00	-0.000854
680.00	-0.000854
681.00	-0.000854
682.00	-0.000854
683.00	-0.000732
684.00	-0.000854
685.00	-0.000854
686.00	-0.000854
687.00	-0.000854
688.00	-0.000977
689.00	-0.000977
690.00	-0.000732
691.00	-0.000977
692.00	-0.000732
693.00	-0.000854
694.00	-0.000977
695.00	-0.000854
696.00	-0.000977
697.00	-0.000732
698.00	-0.000854
699.00	-0.000854
700.00	-0.000854
701.00	-0.000854
702.00	-0.000854
703.00	-0.000854
704.00	-0.000732
705.00	-0.000977
706.00	-0.000854
707.00	-0.000854
708.00	-0.000977
709.00	-0.000854
710.00	-0.000977
711.00	-0.000854
712.00	-0.000977
713.00	-0.000854
714.00	-0.000854
715.00	-0.000977
716.00	-0.000977
717.00	-0.000854
718.00	-0.000854
719.00	-0.000854
720.00	-0.000732
721.00	-0.000854
722.00	-0.000732
723.00	-0.000854
724.00	-0.000977
725.00	-0.000977
726.00	-0.000977
727.00	-0.000977
728.00	-0.000977
729.00	-0.000977
730.00	-0.000977
731.00	-0.000854
732.00	-0.000977
733.00	-0.000854
734.00	-0.000977
735.00	-0.000977
736.00	-0.001099
737.00	-0.001099
738.00	-0.000854
739.00	-0.000854
740.00	-0.000854
741.00	-0.000977
742.00	-0.000977
743.00	-0.001099
744.00	-0.000977
745.00	-0.000977
746.00	-0.001099
747.00	-0.000977
748.00	-0.000854
749.00	-0.000854
750.00	-0.001099
751.00	-0.000977
752.00	-0.001099
753.00	-0.000977
754.00	-0.001221
755.00	-0.001099
756.00	-0.001099
757.00	-0.001099
758.00	-0.001099
759.00	-0.000977
760.00	-0.001343
761.00	-0.001465
762.00	-0.001343
763.00	-0.001343
764.00	-0.001465
765.00	-0.001221
766.00	-0.001343
767.00	-0.001465
768.00	-0.001465
769.00	-0.001465
770.00	-0.001221
771.00	-0.001343
772.00	-0.001465
773.00	-0.001465
774.00	-0.001465
775.00	-0.001221
776.00	-0.001343
777.00	-0.001465
778.00	-0.001343
779.00	-0.001343
780.00	-0.001343
781.00	-0.001343
782.00	-0.001343
783.00	-0.001465
784.00	-0.001465
785.00	-0.001343
786.00	-0.001343
787.00	-0.001343
788.00	-0.001587
789.00	-0.001587
790.00	-0.001465
791.00	-0.001465
792.00	-0.001465
793.00	-0.001465
794.00	-0.001465
795.00	-0.001465
796.00	-0.001587
797.00	-0.001587
798.00	-0.001465
799.00	-0.001465
800.00	-0.001465
801.00	-0.001709
802.00	-0.001465
803.00	-0.001343
804.00	-0.001465
805.00	-0.001587
806.00	-0.001587
807.00	-0.001343
808.00	-0.001465
809.00	-0.001587
810.00	-0.001587
811.00	-0.001465
812.00	-0.001465
813.00	-0.001709
814.00	-0.001465
815.00	-0.001587
816.00	-0.001465
817.00	-0.001465
818.00	-0.001465
819.00	-0.001221
820.00	-0.001587
821.00	-0.001465
822.00	-0.001709
823.00	-0.001465
824.00	-0.001465
825.00	-0.001587
826.00	-0.001465
827.00	-0.001465
828.00	-0.001343
829.00	-0.001465
830.00	-0.001465
831.00	-0.001465
832.00	-0.001709
833.00	-0.001465
834.00	-0.001587
835.00	-0.001465
836.00	-0.001343
837.00	-0.001587
838.00	-0.001343
839.00	-0.001343
840.00	-0.001343
841.00	-0.001343
842.00	-0.001465
843.00	-0.001343
844.00	-0.001343
845.00	-0.001587
846.00	-0.001343
847.00	-0.001465
848.00	-0.001587
849.00	-0.001343
850.00	-0.001709
851.00	-0.001587
852.00	-0.001465
853.00	-0.001465
854.00	-0.001465
855.00	-0.001465
856.00	-0.001465
857.00	-0.001343
858.00	-0.001343
859.00	-0.001465
860.00	-0.001343
861.00	-0.001465
862.00	-0.001465
863.00	-0.001343
864.00	-0.001587
865.00	-0.001465
866.00	-0.001465
867.00	-0.001465
868.00	-0.001465
869.00	-0.001465
870.00	-0.001343
871.00	-0.001221
872.00	-0.001465
873.00	-0.001465
874.00	-0.001465
875.00	-0.001221
876.00	-0.001465
877.00	-0.001343
878.00	-0.001587
879.00	-0.001709
880.00	-0.001587
881.00	-0.001465
882.00	-0.001465
883.00	-0.001343
884.00	-0.001465
885.00	-0.001587
886.00	-0.001343
887.00	-0.001221
888.00	-0.001221
889.00	-0.000977
890.00	-0.000977
891.00	-0.001099
892.00	-0.000977
893.00	-0.000977
894.00	-0.000977
895.00	-0.000977
896.00	-0.000977
897.00	-0.001099
898.00	-0.000854
899.00	-0.000977
900.00	-0.000977