Wavelength nm.	RawData ...
190.00	0.020630
191.00	0.020020
192.00	0.024536
193.00	0.026001
194.00	0.025757
195.00	0.025024
196.00	0.026123
197.00	0.025024
198.00	0.024170
199.00	0.024414
200.00	0.023315
201.00	0.020874
202.00	0.020752
203.00	0.018921
204.00	0.018066
205.00	0.017090
206.00	0.015381
207.00	0.014404
208.00	0.014893
209.00	0.014038
210.00	0.014404
211.00	0.013794
212.00	0.014771
213.00	0.013550
214.00	0.013794
215.00	0.014526
216.00	0.014160
217.00	0.014160
218.00	0.013428
219.00	0.013184
220.00	0.013306
221.00	0.012939
222.00	0.012451
223.00	0.012085
224.00	0.012329
225.00	0.011719
226.00	0.011353
227.00	0.011108
228.00	0.010620
229.00	0.010498
230.00	0.010010
231.00	0.010010
232.00	0.009399
233.00	0.009033
234.00	0.009399
235.00	0.009155
236.00	0.008911
237.00	0.009155
238.00	0.008179
239.00	0.008057
240.00	0.007324
241.00	0.007813
242.00	0.007813
243.00	0.007568
244.00	0.006714
245.00	0.006592
246.00	0.007202
247.00	0.006958
248.00	0.006714
249.00	0.006714
250.00	0.006958
251.00	0.006348
252.00	0.006714
253.00	0.006470
254.00	0.006470
255.00	0.006714
256.00	0.006958
257.00	0.006592
258.00	0.007080
259.00	0.007324
260.00	0.007080
261.00	0.006714
262.00	0.007324
263.00	0.007080
264.00	0.006958
265.00	0.007568
266.00	0.007080
267.00	0.008301
268.00	0.007568
269.00	0.007324
270.00	0.007935
271.00	0.007690
272.00	0.007935
273.00	0.008179
274.00	0.007935
275.00	0.007080
276.00	0.007202
277.00	0.007324
278.00	0.006348
279.00	0.006348
280.00	0.006592
281.00	0.007080
282.00	0.007080
283.00	0.007202
284.00	0.007324
285.00	0.006592
286.00	0.007446
287.00	0.006592
288.00	0.006592
289.00	0.006470
290.00	0.006958
291.00	0.006226
292.00	0.006226
293.00	0.006470
294.00	0.006836
295.00	0.006958
296.00	0.006104
297.00	0.006104
298.00	0.006470
299.00	0.006226
300.00	0.006470
301.00	0.006714
302.00	0.005859
303.00	0.006226
304.00	0.006226
305.00	0.006104
306.00	0.005737
307.00	0.005615
308.00	0.005737
309.00	0.005615
310.00	0.005005
311.00	0.005615
312.00	0.005249
313.00	0.005127
314.00	0.005615
315.00	0.004883
316.00	0.005493
317.00	0.005493
318.00	0.005615
319.00	0.005371
320.00	0.005249
321.00	0.005371
322.00	0.005371
323.00	0.005615
324.00	0.005615
325.00	0.005615
326.00	0.005005
327.00	0.005371
328.00	0.004395
329.00	0.005127
330.00	0.005371
331.00	0.005005
332.00	0.005371
333.00	0.005005
334.00	0.004761
335.00	0.005005
336.00	0.005127
337.00	0.005127
338.00	0.005371
339.00	0.005371
340.00	0.004883
341.00	0.005127
342.00	0.005127
343.00	0.005005
344.00	0.004639
345.00	0.004761
346.00	0.004761
347.00	0.004639
348.00	0.005249
349.00	0.005005
350.00	0.004883
351.00	0.005371
352.00	0.005371
353.00	0.005127
354.00	0.005371
355.00	0.004639
356.00	0.004639
357.00	0.005371
358.00	0.005249
359.00	0.004883
360.00	0.005981
361.00	0.005737
362.00	0.005127
363.00	0.004761
364.00	0.004761
365.00	0.002197
366.00	-0.000732
367.00	0.000000
368.00	0.000000
369.00	-0.000610
370.00	-0.000244
371.00	0.000000
372.00	-0.000366
373.00	-0.000244
374.00	0.000000
375.00	0.000000
376.00	-0.000122
377.00	-0.000122
378.00	0.000000
379.00	0.000244
380.00	-0.000122
381.00	-0.000122
382.00	0.000000
383.00	0.000000
384.00	0.000000
385.00	0.000244
386.00	0.000000
387.00	0.000244
388.00	0.000000
389.00	0.000000
390.00	0.000000
391.00	0.000366
392.00	0.000000
393.00	0.000122
394.00	0.000000
395.00	0.000366
396.00	0.000000
397.00	0.000488
398.00	0.000122
399.00	0.000366
400.00	0.000000
401.00	0.000122
402.00	0.000122
403.00	0.000488
404.00	0.000610
405.00	0.000244
406.00	0.000366
407.00	0.000488
408.00	0.000244
409.00	0.000366
410.00	0.000244
411.00	0.000610
412.00	0.000488
413.00	0.000366
414.00	0.000488
415.00	0.000610
416.00	0.000488
417.00	0.000000
418.00	0.000366
419.00	0.000000
420.00	0.000244
421.00	0.000000
422.00	0.000366
423.00	0.000366
424.00	0.000366
425.00	0.000610
426.00	0.000732
427.00	0.000122
428.00	0.000244
429.00	0.000366
430.00	0.000488
431.00	0.000488
432.00	0.000610
433.00	0.000488
434.00	0.000732
435.00	0.000610
436.00	0.000610
437.00	0.000732
438.00	0.000854
439.00	0.000977
440.00	0.000977
441.00	0.001099
442.00	0.001221
443.00	0.001343
444.00	0.001221
445.00	0.001221
446.00	0.001099
447.00	0.001221
448.00	0.000854
449.00	0.000610
450.00	0.000732
451.00	0.000244
452.00	0.000244
453.00	0.000122
454.00	0.000244
455.00	0.000000
456.00	0.000000
457.00	0.000366
458.00	0.000244
459.00	0.000000
460.00	0.000000
461.00	0.000000
462.00	0.000488
463.00	0.000488
464.00	0.000366
465.00	0.000244
466.00	0.000610
467.00	0.000732
468.00	0.000488
469.00	0.000488
470.00	0.000488
471.00	0.000732
472.00	0.000244
473.00	0.000122
474.00	0.000366
475.00	0.000366
476.00	0.000122
477.00	0.000122
478.00	0.000244
479.00	0.000366
480.00	0.000244
481.00	0.000244
482.00	0.000244
483.00	0.000244
484.00	0.000244
485.00	0.000000
486.00	0.000244
487.00	0.000244
488.00	0.000122
489.00	0.000244
490.00	0.000366
491.00	0.000244
492.00	0.000244
493.00	0.000488
494.00	0.000610
495.00	0.000610
496.00	0.000488
497.00	0.000488
498.00	0.000732
499.00	0.000732
500.00	0.000610
501.00	0.000610
502.00	0.000488
503.00	0.000488
504.00	0.000488
505.00	0.000488
506.00	0.000610
507.00	0.000732
508.00	0.000488
509.00	0.000488
510.00	0.000610
511.00	0.000610
512.00	0.000244
513.00	0.000732
514.00	0.000488
515.00	0.000488
516.00	0.000610
517.00	0.000610
518.00	0.000488
519.00	0.000610
520.00	0.000610
521.00	0.000610
522.00	0.000610
523.00	0.000732
524.00	0.000610
525.00	0.000610
526.00	0.000610
527.00	0.000610
528.00	0.000610
529.00	0.000610
530.00	0.000488
531.00	0.000488
532.00	0.000610
533.00	0.000610
534.00	0.000732
535.00	0.000732
536.00	0.000732
537.00	-0.002441
538.00	-0.002197
539.00	-0.001831
540.00	-0.001587
541.00	-0.001343
542.00	-0.001465
543.00	-0.001343
544.00	-0.001221
545.00	-0.000854
546.00	-0.001099
547.00	-0.000977
548.00	-0.000488
549.00	-0.000610
550.00	-0.000488
551.00	-0.000488
552.00	-0.000488
553.00	-0.000488
554.00	-0.000366
555.00	-0.000366
556.00	-0.000244
557.00	-0.000244
558.00	-0.000244
559.00	-0.000366
560.00	-0.000122
561.00	0.000000
562.00	-0.000122
563.00	-0.000244
564.00	-0.000122
565.00	0.000000
566.00	-0.000244
567.00	-0.000122
568.00	-0.000122
569.00	-0.000122
570.00	-0.000244
571.00	-0.000122
572.00	-0.000122
573.00	0.000000
574.00	0.000000
575.00	-0.000122
576.00	-0.000122
577.00	-0.000366
578.00	-0.000122
579.00	0.000000
580.00	-0.000122
581.00	-0.000122
582.00	-0.000122
583.00	-0.000122
584.00	-0.000122
585.00	-0.000122
586.00	-0.000122
587.00	-0.000122
588.00	0.000000
589.00	-0.000244
590.00	-0.000122
591.00	-0.000244
592.00	-0.000122
593.00	-0.000244
594.00	-0.000244
595.00	-0.000122
596.00	-0.000122
597.00	-0.000122
598.00	-0.000122
599.00	-0.000244
600.00	-0.000244
601.00	-0.000122
602.00	-0.000244
603.00	-0.000122
604.00	-0.000244
605.00	-0.000122
606.00	-0.000122
607.00	-0.000122
608.00	-0.000122
609.00	-0.000122
610.00	-0.000244
611.00	-0.000122
612.00	-0.000244
613.00	0.000000
614.00	-0.000244
615.00	-0.000122
616.00	-0.000244
617.00	-0.000122
618.00	-0.000122
619.00	-0.000122
620.00	-0.000122
621.00	-0.000122
622.00	-0.000366
623.00	-0.000244
624.00	-0.000122
625.00	-0.000122
626.00	-0.000244
627.00	-0.000244
628.00	-0.000244
629.00	-0.000122
630.00	-0.000122
631.00	-0.000122
632.00	-0.000122
633.00	-0.000122
634.00	-0.000244
635.00	-0.000366
636.00	-0.000366
637.00	-0.000244
638.00	-0.000366
639.00	-0.000610
640.00	-0.000244
641.00	-0.000366
642.00	-0.000610
643.00	-0.000488
644.00	-0.000488
645.00	-0.000366
646.00	-0.000366
647.00	-0.000122
648.00	-0.000366
649.00	-0.000366
650.00	-0.000122
651.00	-0.000488
652.00	-0.000244
653.00	-0.000122
654.00	-0.000244
655.00	-0.000366
656.00	-0.000244
657.00	-0.000122
658.00	-0.000244
659.00	-0.000244
660.00	-0.000244
661.00	-0.000122
662.00	-0.000244
663.00	-0.000366
664.00	-0.000244
665.00	-0.000244
666.00	-0.000366
667.00	-0.000366
668.00	-0.000244
669.00	-0.000244
670.00	-0.000366
671.00	-0.000488
672.00	-0.000366
673.00	-0.000244
674.00	-0.000244
675.00	-0.000488
676.00	-0.000488
677.00	-0.000366
678.00	-0.000366
679.00	-0.000366
680.00	-0.000366
681.00	-0.000366
682.00	-0.000366
683.00	-0.000366
684.00	-0.000732
685.00	-0.000488
686.00	-0.000366
687.00	-0.000488
688.00	-0.000488
689.00	-0.000366
690.00	-0.000488
691.00	-0.000366
692.00	-0.000366
693.00	-0.000244
694.00	-0.000366
695.00	-0.000488
696.00	-0.000488
697.00	-0.000610
698.00	-0.000366
699.00	-0.000366
700.00	-0.000488
701.00	-0.000488
702.00	-0.000366
703.00	-0.000488
704.00	-0.000488
705.00	-0.000366
706.00	-0.000244
707.00	-0.000488
708.00	-0.000488
709.00	-0.000366
710.00	-0.000488
711.00	-0.000488
712.00	-0.000488
713.00	-0.000366
714.00	-0.000488
715.00	-0.000488
716.00	-0.000488
717.00	-0.000366
718.00	-0.000488
719.00	-0.000488
720.00	-0.000488
721.00	-0.000366
722.00	-0.000366
723.00	-0.000610
724.00	-0.000488
725.00	-0.000366
726.00	-0.000488
727.00	-0.000610
728.00	-0.000488
729.00	-0.000366
730.00	-0.000488
731.00	-0.000610
732.00	-0.000610
733.00	-0.000610
734.00	-0.000610
735.00	-0.000610
736.00	-0.000610
737.00	-0.000610
738.00	-0.000732
739.00	-0.000610
740.00	-0.000732
741.00	-0.000732
742.00	-0.000732
743.00	-0.000732
744.00	-0.000610
745.00	-0.000610
746.00	-0.000610
747.00	-0.000610
748.00	-0.000732
749.00	-0.000610
750.00	-0.000732
751.00	-0.000732
752.00	-0.000610
753.00	-0.000732
754.00	-0.000732
755.00	-0.000732
756.00	-0.000732
757.00	-0.000488
758.00	-0.000610
759.00	-0.000610
760.00	-0.000732
761.00	-0.001099
762.00	-0.000977
763.00	-0.000854
764.00	-0.001099
765.00	-0.000977
766.00	-0.000977
767.00	-0.000854
768.00	-0.000977
769.00	-0.000854
770.00	-0.000977
771.00	-0.000977
772.00	-0.000854
773.00	-0.000732
774.00	-0.000854
775.00	-0.000977
776.00	-0.000977
777.00	-0.000854
778.00	-0.000732
779.00	-0.000854
780.00	-0.000854
781.00	-0.000732
782.00	-0.000610
783.00	-0.000732
784.00	-0.000854
785.00	-0.000732
786.00	-0.000610
787.00	-0.000854
788.00	-0.000854
789.00	-0.000854
790.00	-0.001099
791.00	-0.000854
792.00	-0.000854
793.00	-0.000854
794.00	-0.000732
795.00	-0.000610
796.00	-0.000854
797.00	-0.000732
798.00	-0.000732
799.00	-0.000732
800.00	-0.000732
801.00	-0.000854
802.00	-0.000732
803.00	-0.000732
804.00	-0.000854
805.00	-0.000854
806.00	-0.000732
807.00	-0.000854
808.00	-0.000610
809.00	-0.000732
810.00	-0.000854
811.00	-0.000854
812.00	-0.000854
813.00	-0.000732
814.00	-0.000732
815.00	-0.000732
816.00	-0.000732
817.00	-0.000977
818.00	-0.000854
819.00	-0.000854
820.00	-0.000977
821.00	-0.000854
822.00	-0.000854
823.00	-0.000854
824.00	-0.000732
825.00	-0.000732
826.00	-0.000732
827.00	-0.000977
828.00	-0.000977
829.00	-0.000977
830.00	-0.000854
831.00	-0.000977
832.00	-0.000854
833.00	-0.000854
834.00	-0.000977
835.00	-0.001099
836.00	-0.001099
837.00	-0.000977
838.00	-0.000977
839.00	-0.000732
840.00	-0.000854
841.00	-0.000977
842.00	-0.000977
843.00	-0.001099
844.00	-0.000977
845.00	-0.000977
846.00	-0.000854
847.00	-0.000977
848.00	-0.000977
849.00	-0.000977
850.00	-0.000854
851.00	-0.000732
852.00	-0.000977
853.00	-0.000977
854.00	-0.001099
855.00	-0.000854
856.00	-0.000732
857.00	-0.000854
858.00	-0.000977
859.00	-0.000854
860.00	-0.000854
861.00	-0.000854
862.00	-0.000854
863.00	-0.000854
864.00	-0.000854
865.00	-0.000854
866.00	-0.000732
867.00	-0.000732
868.00	-0.000732
869.00	-0.000854
870.00	-0.000854
871.00	-0.000854
872.00	-0.000732
873.00	-0.000854
874.00	-0.000732
875.00	-0.000732
876.00	-0.000854
877.00	-0.000732
878.00	-0.000610
879.00	-0.000488
880.00	-0.000610
881.00	-0.000732
882.00	-0.000610
883.00	-0.000610
884.00	-0.000488
885.00	-0.000488
886.00	-0.000366
887.00	-0.000488
888.00	-0.000610
889.00	-0.000488
890.00	-0.000610
891.00	-0.000488
892.00	-0.000732
893.00	-0.000488
894.00	-0.000488
895.00	-0.000732
896.00	-0.000488
897.00	-0.000610
898.00	-0.000366
899.00	-0.000122
900.00	-0.000244