Wavelength nm.	RawData ...
200.00	-0.141113
201.00	-0.142334
202.00	-0.140991
203.00	-0.141479
204.00	-0.141602
205.00	-0.141602
206.00	-0.141724
207.00	-0.142090
208.00	-0.140991
209.00	-0.141846
210.00	-0.141113
211.00	-0.141479
212.00	-0.140747
213.00	-0.141724
214.00	-0.141113
215.00	-0.140991
216.00	-0.140381
217.00	-0.140747
218.00	-0.140747
219.00	-0.140503
220.00	-0.140625
221.00	-0.140625
222.00	-0.139771
223.00	-0.139526
224.00	-0.139282
225.00	-0.139282
226.00	-0.140015
227.00	-0.139771
228.00	-0.139282
229.00	-0.139771
230.00	-0.139038
231.00	-0.138916
232.00	-0.138916
233.00	-0.138794
234.00	-0.139038
235.00	-0.139282
236.00	-0.139282
237.00	-0.139282
238.00	-0.138794
239.00	-0.138550
240.00	-0.139282
241.00	-0.139160
242.00	-0.139282
243.00	-0.139160
244.00	-0.139038
245.00	-0.139160
246.00	-0.139404
247.00	-0.139038
248.00	-0.139771
249.00	-0.139526
250.00	-0.138794
251.00	-0.139771
252.00	-0.139282
253.00	-0.139038
254.00	-0.139038
255.00	-0.138428
256.00	-0.138428
257.00	-0.138794
258.00	-0.138916
259.00	-0.139038
260.00	-0.139404
261.00	-0.139160
262.00	-0.139160
263.00	-0.139160
264.00	-0.138916
265.00	-0.139160
266.00	-0.139282
267.00	-0.138916
268.00	-0.139038
269.00	-0.138794
270.00	-0.138550
271.00	-0.138794
272.00	-0.138672
273.00	-0.138794
274.00	-0.139404
275.00	-0.139160
276.00	-0.138428
277.00	-0.138550
278.00	-0.138672
279.00	-0.139282
280.00	-0.138916
281.00	-0.138794
282.00	-0.139160
283.00	-0.139160
284.00	-0.139038
285.00	-0.138916
286.00	-0.138916
287.00	-0.139038
288.00	-0.139038
289.00	-0.138916
290.00	-0.138794
291.00	-0.138916
292.00	-0.138916
293.00	-0.138672
294.00	-0.138672
295.00	-0.139038
296.00	-0.139160
297.00	-0.138916
298.00	-0.138550
299.00	-0.138672
300.00	-0.139160
301.00	-0.138916
302.00	-0.138916
303.00	-0.138916
304.00	-0.138550
305.00	-0.138550
306.00	-0.139282
307.00	-0.138672
308.00	-0.138916
309.00	-0.139038
310.00	-0.138916
311.00	-0.138916
312.00	-0.138916
313.00	-0.139038
314.00	-0.139160
315.00	-0.138550
316.00	-0.138916
317.00	-0.138672
318.00	-0.138916
319.00	-0.138916
320.00	-0.138916
321.00	-0.138794
322.00	-0.138672
323.00	-0.139282
324.00	-0.138672
325.00	-0.138916
326.00	-0.139038
327.00	-0.139038
328.00	-0.138672
329.00	-0.134277
330.00	-0.137085
331.00	-0.138672
332.00	-0.139160
333.00	-0.138672
334.00	-0.138916
335.00	-0.138794
336.00	-0.138550
337.00	-0.138428
338.00	-0.138916
339.00	-0.138916
340.00	-0.138428
341.00	-0.138794
342.00	-0.138550
343.00	-0.138794
344.00	-0.138794
345.00	-0.138306
346.00	-0.138428
347.00	-0.138794
348.00	-0.138550
349.00	-0.138306
350.00	-0.138672
351.00	-0.139160
352.00	-0.138428
353.00	-0.138794
354.00	-0.138306
355.00	-0.138672
356.00	-0.139038
357.00	-0.138062
358.00	-0.138428
359.00	-0.138672
360.00	-0.138062
361.00	-0.138184
362.00	-0.139526
363.00	-0.138916
364.00	-0.138794
365.00	-0.137085
366.00	-0.136841
367.00	-0.136963
368.00	-0.136230
369.00	-0.136719
370.00	-0.136963
371.00	-0.136719
372.00	-0.136108
373.00	-0.137085
374.00	-0.135986
375.00	-0.136597
376.00	-0.136353
377.00	-0.136841
378.00	-0.136597
379.00	-0.136353
380.00	-0.136230
381.00	-0.136597
382.00	-0.136719
383.00	-0.136475
384.00	-0.136108
385.00	-0.136230
386.00	-0.136719
387.00	-0.136353
388.00	-0.136230
389.00	-0.136719
390.00	-0.136475
391.00	-0.136108
392.00	-0.136230
393.00	-0.136353
394.00	-0.136597
395.00	-0.136353
396.00	-0.136108
397.00	-0.136230
398.00	-0.136597
399.00	-0.136353
400.00	-0.136108
401.00	-0.136475
402.00	-0.136230
403.00	-0.136475
404.00	-0.136108
405.00	-0.136353
406.00	-0.136475
407.00	-0.136230
408.00	-0.135986
409.00	-0.136230
410.00	-0.136475
411.00	-0.136353
412.00	-0.136230
413.00	-0.136597
414.00	-0.136353
415.00	-0.136230
416.00	-0.136108
417.00	-0.136230
418.00	-0.136108
419.00	-0.136108
420.00	-0.136108
421.00	-0.136230
422.00	-0.136230
423.00	-0.136108
424.00	-0.135986
425.00	-0.135742
426.00	-0.135986
427.00	-0.135986
428.00	-0.135742
429.00	-0.135986
430.00	-0.135986
431.00	-0.135986
432.00	-0.135620
433.00	-0.135986
434.00	-0.135742
435.00	-0.135864
436.00	-0.135620
437.00	-0.135742
438.00	-0.135620
439.00	-0.135498
440.00	-0.135742
441.00	-0.135620
442.00	-0.135620
443.00	-0.135620
444.00	-0.135620
445.00	-0.135498
446.00	-0.135742
447.00	-0.135742
448.00	-0.135742
449.00	-0.135986
450.00	-0.135986
451.00	-0.136230
452.00	-0.135864
453.00	-0.136230
454.00	-0.136475
455.00	-0.136230
456.00	-0.135986
457.00	-0.136108
458.00	-0.136353
459.00	-0.136108
460.00	-0.135864
461.00	-0.135986
462.00	-0.136108
463.00	-0.135986
464.00	-0.135742
465.00	-0.135986
466.00	-0.136108
467.00	-0.135986
468.00	-0.136108
469.00	-0.136230
470.00	-0.136230
471.00	-0.136475
472.00	-0.136353
473.00	-0.136475
474.00	-0.136353
475.00	-0.136597
476.00	-0.136353
477.00	-0.136475
478.00	-0.136475
479.00	-0.136475
480.00	-0.136230
481.00	-0.136475
482.00	-0.136475
483.00	-0.136475
484.00	-0.136353
485.00	-0.136353
486.00	-0.136597
487.00	-0.136108
488.00	-0.136230
489.00	-0.136475
490.00	-0.136597
491.00	-0.136475
492.00	-0.135986
493.00	-0.136230
494.00	-0.136353
495.00	-0.136353
496.00	-0.136108
497.00	-0.136475
498.00	-0.136597
499.00	-0.136230
500.00	-0.136230