Wavelength nm.	RawData ...
200.00	0.723877
201.00	0.648315
202.00	0.606323
203.00	0.584351
204.00	0.574707
205.00	0.575439
206.00	0.580444
207.00	0.588501
208.00	0.599365
209.00	0.605103
210.00	0.608521
211.00	0.605713
212.00	0.599609
213.00	0.588013
214.00	0.572754
215.00	0.555298
216.00	0.534546
217.00	0.508057
218.00	0.470459
219.00	0.426392
220.00	0.377075
221.00	0.324097
222.00	0.260498
223.00	0.196899
224.00	0.135132
225.00	0.079956
226.00	0.035278
227.00	-0.004883
228.00	-0.038940
229.00	-0.064453
230.00	-0.083252
231.00	-0.097046
232.00	-0.107300
233.00	-0.114624
234.00	-0.119019
235.00	-0.122314
236.00	-0.124268
237.00	-0.125000
238.00	-0.125122
239.00	-0.125244
240.00	-0.125000
241.00	-0.123413
242.00	-0.121826
243.00	-0.119995
244.00	-0.118042
245.00	-0.115234
246.00	-0.112671
247.00	-0.109619
248.00	-0.106079
249.00	-0.101685
250.00	-0.096802
251.00	-0.091919
252.00	-0.086548
253.00	-0.079224
254.00	-0.072144
255.00	-0.064575
256.00	-0.057373
257.00	-0.050049
258.00	-0.039917
259.00	-0.030396
260.00	-0.020874
261.00	-0.011108
262.00	-0.001587
263.00	0.007080
264.00	0.015381
265.00	0.023926
266.00	0.031372
267.00	0.038452
268.00	0.044067
269.00	0.047607
270.00	0.047241
271.00	0.043213
272.00	0.038330
273.00	0.032349
274.00	0.025391
275.00	0.017578
276.00	0.007080
277.00	-0.006714
278.00	-0.024292
279.00	-0.046265
280.00	-0.067871
281.00	-0.087646
282.00	-0.102783
283.00	-0.113037
284.00	-0.121094
285.00	-0.127075
286.00	-0.130737
287.00	-0.132690
288.00	-0.133911
289.00	-0.134521
290.00	-0.135254
291.00	-0.135498
292.00	-0.136108
293.00	-0.135864
294.00	-0.136353
295.00	-0.135986
296.00	-0.135986
297.00	-0.136475
298.00	-0.136353
299.00	-0.135742
300.00	-0.135986
301.00	-0.135986
302.00	-0.135986
303.00	-0.135498
304.00	-0.136108
305.00	-0.135986
306.00	-0.135864
307.00	-0.135742
308.00	-0.135986
309.00	-0.136230
310.00	-0.136475
311.00	-0.136230
312.00	-0.135742
313.00	-0.136597
314.00	-0.135986
315.00	-0.135742
316.00	-0.135376
317.00	-0.136475
318.00	-0.136475
319.00	-0.136108
320.00	-0.136108
321.00	-0.136230
322.00	-0.136108
323.00	-0.135864
324.00	-0.135376
325.00	-0.135986
326.00	-0.136108
327.00	-0.136597
328.00	-0.136108
329.00	-0.136475
330.00	-0.133179
331.00	-0.134155
332.00	-0.136108
333.00	-0.135986
334.00	-0.136230
335.00	-0.136475
336.00	-0.136230
337.00	-0.136230
338.00	-0.135864
339.00	-0.136475
340.00	-0.136475
341.00	-0.136108
342.00	-0.136719
343.00	-0.136230
344.00	-0.136841
345.00	-0.136353
346.00	-0.136108
347.00	-0.136597
348.00	-0.135864
349.00	-0.136230
350.00	-0.136475
351.00	-0.136230
352.00	-0.136108
353.00	-0.136108
354.00	-0.135864
355.00	-0.136475
356.00	-0.136353
357.00	-0.135864
358.00	-0.135986
359.00	-0.137085
360.00	-0.135742
361.00	-0.136108
362.00	-0.136719
363.00	-0.136841
364.00	-0.136475
365.00	-0.134644
366.00	-0.134888
367.00	-0.134644
368.00	-0.134277
369.00	-0.134644
370.00	-0.135010
371.00	-0.134888
372.00	-0.134155
373.00	-0.134888
374.00	-0.134155
375.00	-0.134521
376.00	-0.134277
377.00	-0.134644
378.00	-0.134521
379.00	-0.134033
380.00	-0.134277
381.00	-0.134521
382.00	-0.134766
383.00	-0.134766
384.00	-0.134277
385.00	-0.134155
386.00	-0.134644
387.00	-0.134399
388.00	-0.134277
389.00	-0.134644
390.00	-0.134277
391.00	-0.134033
392.00	-0.134399
393.00	-0.134521
394.00	-0.134399
395.00	-0.134644
396.00	-0.134155
397.00	-0.134277
398.00	-0.134399
399.00	-0.134277
400.00	-0.134033
401.00	-0.134399
402.00	-0.134277
403.00	-0.134521
404.00	-0.134277
405.00	-0.134277
406.00	-0.134399
407.00	-0.134399
408.00	-0.134033
409.00	-0.134033
410.00	-0.134277
411.00	-0.134155
412.00	-0.133911
413.00	-0.134277
414.00	-0.134277
415.00	-0.133911
416.00	-0.134155
417.00	-0.134521
418.00	-0.134521
419.00	-0.134521
420.00	-0.134277
421.00	-0.134521
422.00	-0.134399
423.00	-0.134399
424.00	-0.134155
425.00	-0.134033
426.00	-0.134277
427.00	-0.134277
428.00	-0.134033
429.00	-0.134277
430.00	-0.134521
431.00	-0.134155
432.00	-0.133911
433.00	-0.133911
434.00	-0.133911
435.00	-0.133911
436.00	-0.133911
437.00	-0.133789
438.00	-0.133911
439.00	-0.133911
440.00	-0.133789
441.00	-0.133789
442.00	-0.133789
443.00	-0.133667
444.00	-0.133667
445.00	-0.133545
446.00	-0.133667
447.00	-0.133911
448.00	-0.133667
449.00	-0.134033
450.00	-0.134277
451.00	-0.134155
452.00	-0.134033
453.00	-0.134277
454.00	-0.134277
455.00	-0.134155
456.00	-0.134033
457.00	-0.133911
458.00	-0.134155
459.00	-0.134155
460.00	-0.134033
461.00	-0.134033
462.00	-0.134155
463.00	-0.134155
464.00	-0.133789
465.00	-0.134033
466.00	-0.134155
467.00	-0.134155
468.00	-0.134277
469.00	-0.134155
470.00	-0.134277
471.00	-0.134521
472.00	-0.134277
473.00	-0.134644
474.00	-0.134521
475.00	-0.134521
476.00	-0.134277
477.00	-0.134521
478.00	-0.134399
479.00	-0.134277
480.00	-0.134399
481.00	-0.134399
482.00	-0.134521
483.00	-0.134521
484.00	-0.134277
485.00	-0.134521
486.00	-0.134399
487.00	-0.134155
488.00	-0.134033
489.00	-0.134399
490.00	-0.134399
491.00	-0.134399
492.00	-0.134277
493.00	-0.134399
494.00	-0.134399
495.00	-0.134521
496.00	-0.134033
497.00	-0.134277
498.00	-0.134399
499.00	-0.134277
500.00	-0.134155