Wavelength nm.	RawData ...
190.00	2.018066
191.00	2.179565
192.00	2.274902
193.00	2.300049
194.00	2.229248
195.00	2.011108
196.00	1.766846
197.00	1.550537
198.00	1.350830
199.00	1.202271
200.00	1.095703
201.00	1.008423
202.00	0.957275
203.00	0.930786
204.00	0.917847
205.00	0.917603
206.00	0.923096
207.00	0.932983
208.00	0.944458
209.00	0.951538
210.00	0.954834
211.00	0.950684
212.00	0.942505
213.00	0.927124
214.00	0.908081
215.00	0.886963
216.00	0.860596
217.00	0.823975
218.00	0.778687
219.00	0.721802
220.00	0.659302
221.00	0.592896
222.00	0.512695
223.00	0.432617
224.00	0.357056
225.00	0.289185
226.00	0.234131
227.00	0.183594
228.00	0.142700
229.00	0.111084
230.00	0.087769
231.00	0.071045
232.00	0.057617
233.00	0.048096
234.00	0.042114
235.00	0.037964
236.00	0.035400
237.00	0.034546
238.00	0.033813
239.00	0.034058
240.00	0.034424
241.00	0.036743
242.00	0.038330
243.00	0.040283
244.00	0.042480
245.00	0.045532
246.00	0.049927
247.00	0.053345
248.00	0.058472
249.00	0.063965
250.00	0.069824
251.00	0.075806
252.00	0.083374
253.00	0.091187
254.00	0.100098
255.00	0.110107
256.00	0.119751
257.00	0.129395
258.00	0.141235
259.00	0.153687
260.00	0.166138
261.00	0.178101
262.00	0.188965
263.00	0.199951
264.00	0.210938
265.00	0.221558
266.00	0.230835
267.00	0.239502
268.00	0.246216
269.00	0.249756
270.00	0.248779
271.00	0.244019
272.00	0.237183
273.00	0.229126
274.00	0.220581
275.00	0.210205
276.00	0.196411
277.00	0.177734
278.00	0.155518
279.00	0.127930
280.00	0.100708
281.00	0.076904
282.00	0.057495
283.00	0.044678
284.00	0.034302
285.00	0.026855
286.00	0.022827
287.00	0.019775
288.00	0.018188
289.00	0.016724
290.00	0.015747
291.00	0.014893
292.00	0.014160
293.00	0.014526
294.00	0.014282
295.00	0.013916
296.00	0.013916
297.00	0.013550
298.00	0.013672
299.00	0.013794
300.00	0.014038
301.00	0.014282
302.00	0.013672
303.00	0.013672
304.00	0.013428
305.00	0.013428
306.00	0.013184
307.00	0.012207
308.00	0.012207
309.00	0.011963
310.00	0.011841
311.00	0.012085
312.00	0.012329
313.00	0.011597
314.00	0.012085
315.00	0.010986
316.00	0.011597
317.00	0.011841
318.00	0.011353
319.00	0.011230
320.00	0.011475
321.00	0.011719
322.00	0.011353
323.00	0.011475
324.00	0.012085
325.00	0.011719
326.00	0.011230
327.00	0.011108
328.00	0.010498
329.00	0.011108
330.00	0.011230
331.00	0.010742
332.00	0.011719
333.00	0.011108
334.00	0.010864
335.00	0.010620
336.00	0.010986
337.00	0.011353
338.00	0.010864
339.00	0.011108
340.00	0.010498
341.00	0.010864
342.00	0.010742
343.00	0.010498
344.00	0.010376
345.00	0.010132
346.00	0.010254
347.00	0.010132
348.00	0.010742
349.00	0.010254
350.00	0.010498
351.00	0.010132
352.00	0.010254
353.00	0.010010
354.00	0.009888
355.00	0.010010
356.00	0.009766
357.00	0.010498
358.00	0.010254
359.00	0.010010
360.00	0.010986
361.00	0.010498
362.00	0.010254
363.00	0.009888
364.00	0.009521
365.00	0.008545
366.00	0.004395
367.00	0.005249
368.00	0.005249
369.00	0.004761
370.00	0.005005
371.00	0.005249
372.00	0.004639
373.00	0.004883
374.00	0.005371
375.00	0.005127
376.00	0.004883
377.00	0.005005
378.00	0.005005
379.00	0.005371
380.00	0.005005
381.00	0.005005
382.00	0.005127
383.00	0.005493
384.00	0.005127
385.00	0.005737
386.00	0.005127
387.00	0.005615
388.00	0.005249
389.00	0.005005
390.00	0.004883
391.00	0.005493
392.00	0.005127
393.00	0.005005
394.00	0.005249
395.00	0.005615
396.00	0.005127
397.00	0.005737
398.00	0.005127
399.00	0.005371
400.00	0.005127
401.00	0.005127
402.00	0.005127
403.00	0.005493
404.00	0.005493
405.00	0.005371
406.00	0.005249
407.00	0.005371
408.00	0.005127
409.00	0.005249
410.00	0.004883
411.00	0.005249
412.00	0.005127
413.00	0.005005
414.00	0.004883
415.00	0.005371
416.00	0.005249
417.00	0.004883
418.00	0.005127
419.00	0.004639
420.00	0.004883
421.00	0.004639
422.00	0.005005
423.00	0.005005
424.00	0.004761
425.00	0.005127
426.00	0.005127
427.00	0.004761
428.00	0.004639
429.00	0.004883
430.00	0.004883
431.00	0.004761
432.00	0.004883
433.00	0.004883
434.00	0.004761
435.00	0.005005
436.00	0.004883
437.00	0.005127
438.00	0.005127
439.00	0.005005
440.00	0.005249
441.00	0.005249
442.00	0.005371
443.00	0.005371
444.00	0.005249
445.00	0.005371
446.00	0.005249
447.00	0.005127
448.00	0.004883
449.00	0.004517
450.00	0.004639
451.00	0.004272
452.00	0.004028
453.00	0.003906
454.00	0.004028
455.00	0.003662
456.00	0.003662
457.00	0.004028
458.00	0.004028
459.00	0.003784
460.00	0.003662
461.00	0.003662
462.00	0.004150
463.00	0.004028
464.00	0.004150
465.00	0.004028
466.00	0.004272
467.00	0.004028
468.00	0.004150
469.00	0.004150
470.00	0.004150
471.00	0.004150
472.00	0.003662
473.00	0.003662
474.00	0.003906
475.00	0.003906
476.00	0.003540
477.00	0.003540
478.00	0.003784
479.00	0.003784
480.00	0.003540
481.00	0.003540
482.00	0.003662
483.00	0.003662
484.00	0.003540
485.00	0.003540
486.00	0.003540
487.00	0.003540
488.00	0.003418
489.00	0.003418
490.00	0.003540
491.00	0.003540
492.00	0.003418
493.00	0.003784
494.00	0.003662
495.00	0.003418
496.00	0.003662
497.00	0.003784
498.00	0.003906
499.00	0.003906
500.00	0.003784
501.00	0.003906
502.00	0.003418
503.00	0.003662
504.00	0.003662
505.00	0.003540
506.00	0.003784
507.00	0.003906
508.00	0.003784
509.00	0.003662
510.00	0.003540
511.00	0.003540
512.00	0.003662
513.00	0.003784
514.00	0.003418
515.00	0.003418
516.00	0.003296
517.00	0.003540
518.00	0.003296
519.00	0.003540
520.00	0.003662
521.00	0.003540
522.00	0.003784
523.00	0.003662
524.00	0.003662
525.00	0.003662
526.00	0.003662
527.00	0.003540
528.00	0.003540
529.00	0.003296
530.00	0.003418
531.00	0.003296
532.00	0.003540
533.00	0.003418
534.00	0.003662
535.00	0.003662
536.00	0.003540
537.00	0.000488
538.00	0.000610
539.00	0.000977
540.00	0.000977
541.00	0.001343
542.00	0.001465
543.00	0.001343
544.00	0.001343
545.00	0.001587
546.00	0.001709
547.00	0.001953
548.00	0.001709
549.00	0.002075
550.00	0.002075
551.00	0.002075
552.00	0.002197
553.00	0.002197
554.00	0.002075
555.00	0.002075
556.00	0.002197
557.00	0.002197
558.00	0.002197
559.00	0.002197
560.00	0.002319
561.00	0.002319
562.00	0.002319
563.00	0.002441
564.00	0.002075
565.00	0.002441
566.00	0.002319
567.00	0.002197
568.00	0.002197
569.00	0.002319
570.00	0.002197
571.00	0.002319
572.00	0.002197
573.00	0.002197
574.00	0.002319
575.00	0.002075
576.00	0.002197
577.00	0.002075
578.00	0.002197
579.00	0.001953
580.00	0.002075
581.00	0.002197
582.00	0.002197
583.00	0.002197
584.00	0.002075
585.00	0.002319
586.00	0.002197
587.00	0.002075
588.00	0.002075
589.00	0.002075
590.00	0.002075
591.00	0.001953
592.00	0.001953
593.00	0.002075
594.00	0.002075
595.00	0.002197
596.00	0.002197
597.00	0.002075
598.00	0.001953
599.00	0.001953
600.00	0.002075
601.00	0.002075
602.00	0.001953
603.00	0.002075
604.00	0.001953
605.00	0.002197
606.00	0.002075
607.00	0.001831
608.00	0.001831
609.00	0.002075
610.00	0.001953
611.00	0.001831
612.00	0.001831
613.00	0.001831
614.00	0.001953
615.00	0.001953
616.00	0.001953
617.00	0.001953
618.00	0.001709
619.00	0.001709
620.00	0.001953
621.00	0.001831
622.00	0.001831
623.00	0.001709
624.00	0.001831
625.00	0.001831
626.00	0.001709
627.00	0.001831
628.00	0.001831
629.00	0.001709
630.00	0.001831
631.00	0.001953
632.00	0.001831
633.00	0.001709
634.00	0.001587
635.00	0.001587
636.00	0.001343
637.00	0.001465
638.00	0.001343
639.00	0.001343
640.00	0.001465
641.00	0.001465
642.00	0.001343
643.00	0.001221
644.00	0.001465
645.00	0.001465
646.00	0.001465
647.00	0.001831
648.00	0.001709
649.00	0.001587
650.00	0.001831
651.00	0.001709
652.00	0.001587
653.00	0.001709
654.00	0.001709
655.00	0.001587
656.00	0.001587
657.00	0.001709
658.00	0.001587
659.00	0.001587
660.00	0.001709
661.00	0.001587
662.00	0.001587
663.00	0.001465
664.00	0.001587
665.00	0.001587
666.00	0.001465
667.00	0.001465
668.00	0.001343
669.00	0.001465
670.00	0.001465
671.00	0.001465
672.00	0.001343
673.00	0.001221
674.00	0.001465
675.00	0.001465
676.00	0.001221
677.00	0.001343
678.00	0.001343
679.00	0.001343
680.00	0.001343
681.00	0.001343
682.00	0.001343
683.00	0.001343
684.00	0.001221
685.00	0.001343
686.00	0.001465
687.00	0.001221
688.00	0.001343
689.00	0.001343
690.00	0.001221
691.00	0.001343
692.00	0.001343
693.00	0.001343
694.00	0.001221
695.00	0.001221
696.00	0.001099
697.00	0.001221
698.00	0.001343
699.00	0.001221
700.00	0.001221
701.00	0.001221
702.00	0.001221
703.00	0.001221
704.00	0.001343
705.00	0.001221
706.00	0.001099
707.00	0.001099
708.00	0.001099
709.00	0.001221
710.00	0.001099
711.00	0.001099
712.00	0.001099
713.00	0.001343
714.00	0.001221
715.00	0.001221
716.00	0.001221
717.00	0.001099
718.00	0.001099
719.00	0.000977
720.00	0.001221
721.00	0.001221
722.00	0.001221
723.00	0.000977
724.00	0.001221
725.00	0.001099
726.00	0.001099
727.00	0.001099
728.00	0.001099
729.00	0.000977
730.00	0.000977
731.00	0.000977
732.00	0.000854
733.00	0.000854
734.00	0.000977
735.00	0.000854
736.00	0.000977
737.00	0.000977
738.00	0.000977
739.00	0.000854
740.00	0.000854
741.00	0.000732
742.00	0.000732
743.00	0.000854
744.00	0.000854
745.00	0.000854
746.00	0.000732
747.00	0.000854
748.00	0.000732
749.00	0.000854
750.00	0.000732
751.00	0.000854
752.00	0.000854
753.00	0.000732
754.00	0.000732
755.00	0.000732
756.00	0.000732
757.00	0.000732
758.00	0.000732
759.00	0.000732
760.00	0.000732
761.00	0.000244
762.00	0.000366
763.00	0.000488
764.00	0.000244
765.00	0.000366
766.00	0.000488
767.00	0.000488
768.00	0.000366
769.00	0.000488
770.00	0.000366
771.00	0.000488
772.00	0.000488
773.00	0.000610
774.00	0.000488
775.00	0.000366
776.00	0.000488
777.00	0.000488
778.00	0.000610
779.00	0.000488
780.00	0.000610
781.00	0.000610
782.00	0.000732
783.00	0.000732
784.00	0.000488
785.00	0.000610
786.00	0.000610
787.00	0.000488
788.00	0.000488
789.00	0.000366
790.00	0.000366
791.00	0.000366
792.00	0.000610
793.00	0.000488
794.00	0.000488
795.00	0.000610
796.00	0.000366
797.00	0.000488
798.00	0.000488
799.00	0.000488
800.00	0.000610
801.00	0.000610
802.00	0.000488
803.00	0.000610
804.00	0.000488
805.00	0.000488
806.00	0.000488
807.00	0.000366
808.00	0.000488
809.00	0.000488
810.00	0.000488
811.00	0.000366
812.00	0.000488
813.00	0.000366
814.00	0.000488
815.00	0.000488
816.00	0.000488
817.00	0.000244
818.00	0.000366
819.00	0.000244
820.00	0.000366
821.00	0.000366
822.00	0.000366
823.00	0.000244
824.00	0.000488
825.00	0.000488
826.00	0.000366
827.00	0.000244
828.00	0.000366
829.00	0.000366
830.00	0.000366
831.00	0.000488
832.00	0.000488
833.00	0.000488
834.00	0.000366
835.00	0.000366
836.00	0.000366
837.00	0.000366
838.00	0.000366
839.00	0.000366
840.00	0.000366
841.00	0.000366
842.00	0.000366
843.00	0.000244
844.00	0.000366
845.00	0.000244
846.00	0.000366
847.00	0.000488
848.00	0.000488
849.00	0.000244
850.00	0.000488
851.00	0.000366
852.00	0.000366
853.00	0.000488
854.00	0.000366
855.00	0.000488
856.00	0.000610
857.00	0.000366
858.00	0.000366
859.00	0.000488
860.00	0.000488
861.00	0.000732
862.00	0.000488
863.00	0.000488
864.00	0.000488
865.00	0.000488
866.00	0.000488
867.00	0.000366
868.00	0.000610
869.00	0.000488
870.00	0.000488
871.00	0.000488
872.00	0.000488
873.00	0.000488
874.00	0.000610
875.00	0.000488
876.00	0.000610
877.00	0.000610
878.00	0.000732
879.00	0.000977
880.00	0.000732
881.00	0.000854
882.00	0.000732
883.00	0.000610
884.00	0.000732
885.00	0.000488
886.00	0.000488
887.00	0.000732
888.00	0.000610
889.00	0.000854
890.00	0.000610
891.00	0.000610
892.00	0.000488
893.00	0.000488
894.00	0.000366
895.00	0.000488
896.00	0.000488
897.00	0.000610
898.00	0.000732
899.00	0.000977
900.00	0.000854