Wavelength nm.	RawData ...
200.00	0.092407
201.00	0.065918
202.00	0.053101
203.00	0.045898
204.00	0.043213
205.00	0.043579
206.00	0.044312
207.00	0.046387
208.00	0.049927
209.00	0.050903
210.00	0.052246
211.00	0.051147
212.00	0.049805
213.00	0.046509
214.00	0.043091
215.00	0.039673
216.00	0.033936
217.00	0.026733
218.00	0.017944
219.00	0.006836
220.00	-0.003906
221.00	-0.016479
222.00	-0.032959
223.00	-0.048828
224.00	-0.064087
225.00	-0.078491
226.00	-0.089844
227.00	-0.100708
228.00	-0.109497
229.00	-0.116333
230.00	-0.120972
231.00	-0.124878
232.00	-0.127563
233.00	-0.129639
234.00	-0.130249
235.00	-0.131226
236.00	-0.131470
237.00	-0.131348
238.00	-0.131836
239.00	-0.132202
240.00	-0.131836
241.00	-0.131348
242.00	-0.130981
243.00	-0.130493
244.00	-0.130127
245.00	-0.129272
246.00	-0.128540
247.00	-0.128052
248.00	-0.127197
249.00	-0.125977
250.00	-0.124634
251.00	-0.123901
252.00	-0.122681
253.00	-0.120361
254.00	-0.118164
255.00	-0.116333
256.00	-0.115112
257.00	-0.113403
258.00	-0.110107
259.00	-0.107910
260.00	-0.105713
261.00	-0.103149
262.00	-0.100952
263.00	-0.098511
264.00	-0.096802
265.00	-0.094360
266.00	-0.092896
267.00	-0.090454
268.00	-0.089111
269.00	-0.088257
270.00	-0.088623
271.00	-0.089600
272.00	-0.090454
273.00	-0.091553
274.00	-0.093262
275.00	-0.096191
276.00	-0.098633
277.00	-0.102173
278.00	-0.105957
279.00	-0.111450
280.00	-0.117065
281.00	-0.122070
282.00	-0.125977
283.00	-0.128784
284.00	-0.130859
285.00	-0.132568
286.00	-0.133057
287.00	-0.133423
288.00	-0.134033
289.00	-0.134277
290.00	-0.134521
291.00	-0.134155
292.00	-0.134766
293.00	-0.134277
294.00	-0.134888
295.00	-0.134766
296.00	-0.134277
297.00	-0.134888
298.00	-0.134766
299.00	-0.134399
300.00	-0.134399
301.00	-0.134277
302.00	-0.134521
303.00	-0.134155
304.00	-0.134277
305.00	-0.134155
306.00	-0.134033
307.00	-0.134399
308.00	-0.134521
309.00	-0.135010
310.00	-0.134521
311.00	-0.134766
312.00	-0.134521
313.00	-0.134888
314.00	-0.134033
315.00	-0.134644
316.00	-0.134521
317.00	-0.134766
318.00	-0.134888
319.00	-0.134766
320.00	-0.134521
321.00	-0.134766
322.00	-0.135132
323.00	-0.134521
324.00	-0.134155
325.00	-0.134399
326.00	-0.134399
327.00	-0.134766
328.00	-0.134521
329.00	-0.134644
330.00	-0.132935
331.00	-0.133789
332.00	-0.134399
333.00	-0.134644
334.00	-0.134766
335.00	-0.135132
336.00	-0.134521
337.00	-0.134277
338.00	-0.134277
339.00	-0.134399
340.00	-0.134888
341.00	-0.134644
342.00	-0.135376
343.00	-0.134644
344.00	-0.134766
345.00	-0.134399
346.00	-0.134521
347.00	-0.134888
348.00	-0.134277
349.00	-0.134521
350.00	-0.134766
351.00	-0.134277
352.00	-0.134399
353.00	-0.134277
354.00	-0.134033
355.00	-0.134644
356.00	-0.134766
357.00	-0.134155
358.00	-0.134033
359.00	-0.135132
360.00	-0.134521
361.00	-0.134033
362.00	-0.134766
363.00	-0.134644
364.00	-0.134521
365.00	-0.132568
366.00	-0.132935
367.00	-0.133057
368.00	-0.132446
369.00	-0.132813
370.00	-0.133057
371.00	-0.132935
372.00	-0.132324
373.00	-0.132935
374.00	-0.132324
375.00	-0.132568
376.00	-0.132324
377.00	-0.132690
378.00	-0.132690
379.00	-0.132202
380.00	-0.132324
381.00	-0.132690
382.00	-0.132813
383.00	-0.132690
384.00	-0.132324
385.00	-0.132324
386.00	-0.132813
387.00	-0.132568
388.00	-0.132446
389.00	-0.132813
390.00	-0.132690
391.00	-0.132202
392.00	-0.132446
393.00	-0.132690
394.00	-0.132690
395.00	-0.132690
396.00	-0.132324
397.00	-0.132446
398.00	-0.132568
399.00	-0.132568
400.00	-0.132324
401.00	-0.132568
402.00	-0.132568
403.00	-0.132690
404.00	-0.132324
405.00	-0.132690
406.00	-0.132446
407.00	-0.132568
408.00	-0.132080
409.00	-0.132324
410.00	-0.132568
411.00	-0.132446
412.00	-0.132324
413.00	-0.132446
414.00	-0.132568
415.00	-0.132080
416.00	-0.132324
417.00	-0.132568
418.00	-0.132446
419.00	-0.132446
420.00	-0.132324
421.00	-0.132446
422.00	-0.132446
423.00	-0.132446
424.00	-0.132080
425.00	-0.132202
426.00	-0.132446
427.00	-0.132324
428.00	-0.132080
429.00	-0.132202
430.00	-0.132690
431.00	-0.132446
432.00	-0.132202
433.00	-0.132324
434.00	-0.132324
435.00	-0.132324
436.00	-0.132080
437.00	-0.132324
438.00	-0.132324
439.00	-0.132446
440.00	-0.132324
441.00	-0.132324
442.00	-0.132568
443.00	-0.132324
444.00	-0.132446
445.00	-0.132324
446.00	-0.132324
447.00	-0.132446
448.00	-0.132080
449.00	-0.132324
450.00	-0.132446
451.00	-0.132202
452.00	-0.131958
453.00	-0.132202
454.00	-0.132324
455.00	-0.132324
456.00	-0.131958
457.00	-0.131958
458.00	-0.132202
459.00	-0.132202
460.00	-0.132080
461.00	-0.132202
462.00	-0.132324
463.00	-0.132324
464.00	-0.132080
465.00	-0.132202
466.00	-0.132324
467.00	-0.132080
468.00	-0.132080
469.00	-0.132202
470.00	-0.132080
471.00	-0.132568
472.00	-0.132080
473.00	-0.132202
474.00	-0.132324
475.00	-0.132202
476.00	-0.132080
477.00	-0.132324
478.00	-0.132202
479.00	-0.132202
480.00	-0.132080
481.00	-0.132324
482.00	-0.132202
483.00	-0.132202
484.00	-0.131958
485.00	-0.132202
486.00	-0.132080
487.00	-0.132080
488.00	-0.131958
489.00	-0.132202
490.00	-0.132324
491.00	-0.132202
492.00	-0.132080
493.00	-0.132202
494.00	-0.132202
495.00	-0.132446
496.00	-0.132202
497.00	-0.132202
498.00	-0.132324
499.00	-0.132202
500.00	-0.132080