Wavelength nm.	RawData ...
190.00	2.238403
191.00	2.363647
192.00	2.463013
193.00	2.536499
194.00	2.587036
195.00	2.607300
196.00	2.571655
197.00	2.410278
198.00	2.155640
199.00	1.885498
200.00	1.641968
201.00	1.414551
202.00	1.240601
203.00	1.120361
204.00	1.020630
205.00	0.958862
206.00	0.921143
207.00	0.897949
208.00	0.890869
209.00	0.890381
210.00	0.896484
211.00	0.902222
212.00	0.910767
213.00	0.917725
214.00	0.927612
215.00	0.939819
216.00	0.953735
217.00	0.972290
218.00	0.993286
219.00	1.012939
220.00	1.024658
221.00	1.026123
222.00	1.015381
223.00	0.989746
224.00	0.947754
225.00	0.893555
226.00	0.832031
227.00	0.758301
228.00	0.679321
229.00	0.600586
230.00	0.527710
231.00	0.460693
232.00	0.394409
233.00	0.336304
234.00	0.286011
235.00	0.243652
236.00	0.209229
237.00	0.181641
238.00	0.156006
239.00	0.135010
240.00	0.117676
241.00	0.104736
242.00	0.095215
243.00	0.086304
244.00	0.079102
245.00	0.073242
246.00	0.069214
247.00	0.065552
248.00	0.062744
249.00	0.060425
250.00	0.059326
251.00	0.058228
252.00	0.058228
253.00	0.059082
254.00	0.060059
255.00	0.062134
256.00	0.063599
257.00	0.065918
258.00	0.068848
259.00	0.073120
260.00	0.077759
261.00	0.083740
262.00	0.091187
263.00	0.099854
264.00	0.110229
265.00	0.122925
266.00	0.135376
267.00	0.149292
268.00	0.165039
269.00	0.182617
270.00	0.201782
271.00	0.221191
272.00	0.239624
273.00	0.261963
274.00	0.284546
275.00	0.308350
276.00	0.332642
277.00	0.358032
278.00	0.380615
279.00	0.405762
280.00	0.430054
281.00	0.452759
282.00	0.472778
283.00	0.489258
284.00	0.505371
285.00	0.518677
286.00	0.527100
287.00	0.532104
288.00	0.533936
289.00	0.530151
290.00	0.522949
291.00	0.510620
292.00	0.495483
293.00	0.478638
294.00	0.456055
295.00	0.431396
296.00	0.403198
297.00	0.372925
298.00	0.342529
299.00	0.305420
300.00	0.267334
301.00	0.230591
302.00	0.196289
303.00	0.164795
304.00	0.134399
305.00	0.106689
306.00	0.086304
307.00	0.064087
308.00	0.048706
309.00	0.035400
310.00	0.025146
311.00	0.017212
312.00	0.012451
313.00	0.009277
314.00	0.006226
315.00	0.004028
316.00	0.002930
317.00	0.002197
318.00	0.001099
319.00	0.000854
320.00	0.000732
321.00	0.000977
322.00	0.000000
323.00	0.000000
324.00	0.000000
325.00	0.000000
326.00	0.000000
327.00	0.000244
328.00	-0.000122
329.00	0.000000
330.00	-0.000244
331.00	0.000000
332.00	0.000244
333.00	-0.000122
334.00	0.000000
335.00	-0.000122
336.00	-0.000122
337.00	-0.000122
338.00	0.000000
339.00	0.000000
340.00	0.000000
341.00	0.000000
342.00	0.000000
343.00	0.000122
344.00	0.000000
345.00	0.000122
346.00	0.000000
347.00	0.000000
348.00	0.000122
349.00	0.000244
350.00	-0.000122
351.00	0.000000
352.00	0.000000
353.00	0.000488
354.00	0.000488
355.00	0.000244
356.00	0.000122
357.00	0.001099
358.00	0.000488
359.00	0.000488
360.00	0.001465
361.00	0.001221
362.00	0.000610
363.00	0.000000
364.00	0.001343
365.00	-0.000244
366.00	-0.004028
367.00	-0.003784
368.00	-0.003662
369.00	-0.003906
370.00	-0.004028
371.00	-0.003296
372.00	-0.003906
373.00	-0.003906
374.00	-0.003052
375.00	-0.003174
376.00	-0.002930
377.00	-0.003662
378.00	-0.003540
379.00	-0.003052
380.00	-0.003540
381.00	-0.003174
382.00	-0.003540
383.00	-0.003052
384.00	-0.003174
385.00	-0.002686
386.00	-0.003052
387.00	-0.002319
388.00	-0.002441
389.00	-0.002930
390.00	-0.002563
391.00	-0.002686
392.00	-0.003052
393.00	-0.002563
394.00	-0.002563
395.00	-0.002197
396.00	-0.002319
397.00	-0.001953
398.00	-0.002319
399.00	-0.001953
400.00	-0.002197
401.00	-0.002075
402.00	-0.002075
403.00	-0.001953
404.00	-0.001831
405.00	-0.001831
406.00	-0.002197
407.00	-0.001831
408.00	-0.001831
409.00	-0.001953
410.00	-0.001953
411.00	-0.001587
412.00	-0.001953
413.00	-0.001953
414.00	-0.001831
415.00	-0.001953
416.00	-0.001831
417.00	-0.002319
418.00	-0.001953
419.00	-0.002441
420.00	-0.002441
421.00	-0.002319
422.00	-0.002197
423.00	-0.002197
424.00	-0.002319
425.00	-0.002075
426.00	-0.001831
427.00	-0.002075
428.00	-0.001831
429.00	-0.001953
430.00	-0.001709
431.00	-0.001953
432.00	-0.001831
433.00	-0.001709
434.00	-0.001099
435.00	-0.001587
436.00	-0.001465
437.00	-0.001465
438.00	-0.001099
439.00	-0.001099
440.00	-0.001099
441.00	-0.000977
442.00	-0.001221
443.00	-0.001099
444.00	-0.000977
445.00	-0.000854
446.00	-0.000977
447.00	-0.001221
448.00	-0.001343
449.00	-0.001465
450.00	-0.001709
451.00	-0.001953
452.00	-0.001953
453.00	-0.002197
454.00	-0.002075
455.00	-0.002319
456.00	-0.002441
457.00	-0.001953
458.00	-0.002075
459.00	-0.002441
460.00	-0.002319
461.00	-0.001953
462.00	-0.001831
463.00	-0.001709
464.00	-0.001709
465.00	-0.001709
466.00	-0.001587
467.00	-0.001465
468.00	-0.001587
469.00	-0.001709
470.00	-0.001831
471.00	-0.001953
472.00	-0.002075
473.00	-0.002197
474.00	-0.001831
475.00	-0.001953
476.00	-0.002075
477.00	-0.001953
478.00	-0.001587
479.00	-0.001831
480.00	-0.001709
481.00	-0.001709
482.00	-0.001831
483.00	-0.001831
484.00	-0.001709
485.00	-0.001831
486.00	-0.001709
487.00	-0.001953
488.00	-0.001831
489.00	-0.001709
490.00	-0.001587
491.00	-0.001709
492.00	-0.001831
493.00	-0.001709
494.00	-0.001587
495.00	-0.001465
496.00	-0.001831
497.00	-0.001709
498.00	-0.001587
499.00	-0.001709
500.00	-0.001709
501.00	-0.001587
502.00	-0.001709
503.00	-0.001465
504.00	-0.001587
505.00	-0.001709
506.00	-0.001587
507.00	-0.001709
508.00	-0.001587
509.00	-0.001587
510.00	-0.001587
511.00	-0.001465
512.00	-0.001465
513.00	-0.001343
514.00	-0.001587
515.00	-0.001587
516.00	-0.001343
517.00	-0.001221
518.00	-0.001343
519.00	-0.001343
520.00	-0.001465
521.00	-0.001343
522.00	-0.001465
523.00	-0.001221
524.00	-0.001221
525.00	-0.001221
526.00	-0.001343
527.00	-0.001465
528.00	-0.001343
529.00	-0.001099
530.00	-0.000977
531.00	-0.001343
532.00	-0.001587
533.00	-0.001465
534.00	-0.001465
535.00	-0.001221
536.00	-0.001587
537.00	-0.002563
538.00	-0.002686
539.00	-0.002563
540.00	-0.002563
541.00	-0.002075
542.00	-0.002319
543.00	-0.002319
544.00	-0.002075
545.00	-0.001953
546.00	-0.002319
547.00	-0.002197
548.00	-0.001953
549.00	-0.001831
550.00	-0.001953
551.00	-0.001831
552.00	-0.001953
553.00	-0.001831
554.00	-0.002075
555.00	-0.001831
556.00	-0.002075
557.00	-0.001831
558.00	-0.002075
559.00	-0.002075
560.00	-0.001831
561.00	-0.001709
562.00	-0.002075
563.00	-0.001831
564.00	-0.001831
565.00	-0.001831
566.00	-0.001831
567.00	-0.001953
568.00	-0.001831
569.00	-0.001831
570.00	-0.001953
571.00	-0.001953
572.00	-0.001953
573.00	-0.001709
574.00	-0.001953
575.00	-0.001953
576.00	-0.001953
577.00	-0.001831
578.00	-0.001953
579.00	-0.001953
580.00	-0.001831
581.00	-0.001709
582.00	-0.001953
583.00	-0.001953
584.00	-0.001831
585.00	-0.001953
586.00	-0.002075
587.00	-0.001953
588.00	-0.002075
589.00	-0.001831
590.00	-0.001831
591.00	-0.001953
592.00	-0.001831
593.00	-0.001709
594.00	-0.001953
595.00	-0.001831
596.00	-0.001953
597.00	-0.001709
598.00	-0.001587
599.00	-0.001709
600.00	-0.001953
601.00	-0.001953
602.00	-0.001953
603.00	-0.001953
604.00	-0.001953
605.00	-0.001831
606.00	-0.002075
607.00	-0.001709
608.00	-0.001709
609.00	-0.001709
610.00	-0.001831
611.00	-0.001831
612.00	-0.001953
613.00	-0.001709
614.00	-0.001831
615.00	-0.001953
616.00	-0.001831
617.00	-0.001953
618.00	-0.001953
619.00	-0.001953
620.00	-0.001831
621.00	-0.001831
622.00	-0.001831
623.00	-0.001831
624.00	-0.001831
625.00	-0.001831
626.00	-0.001831
627.00	-0.001709
628.00	-0.001709
629.00	-0.001831
630.00	-0.001831
631.00	-0.001953
632.00	-0.001831
633.00	-0.001953
634.00	-0.001953
635.00	-0.002197
636.00	-0.002319
637.00	-0.002197
638.00	-0.002319
639.00	-0.002319
640.00	-0.001831
641.00	-0.002075
642.00	-0.002075
643.00	-0.002197
644.00	-0.001953
645.00	-0.001953
646.00	-0.001953
647.00	-0.001953
648.00	-0.001831
649.00	-0.001709
650.00	-0.001953
651.00	-0.001709
652.00	-0.001709
653.00	-0.001953
654.00	-0.001709
655.00	-0.001709
656.00	-0.001709
657.00	-0.001587
658.00	-0.001709
659.00	-0.001831
660.00	-0.001709
661.00	-0.001709
662.00	-0.001953
663.00	-0.001831
664.00	-0.001831
665.00	-0.001953
666.00	-0.001953
667.00	-0.001953
668.00	-0.001709
669.00	-0.001709
670.00	-0.001709
671.00	-0.001831
672.00	-0.001953
673.00	-0.001831
674.00	-0.001953
675.00	-0.001953
676.00	-0.001831
677.00	-0.001953
678.00	-0.002075
679.00	-0.001953
680.00	-0.001831
681.00	-0.001709
682.00	-0.001953
683.00	-0.001831
684.00	-0.001831
685.00	-0.001709
686.00	-0.001709
687.00	-0.001953
688.00	-0.002075
689.00	-0.001953
690.00	-0.001953
691.00	-0.001709
692.00	-0.001709
693.00	-0.001831
694.00	-0.001953
695.00	-0.001953
696.00	-0.001953
697.00	-0.001831
698.00	-0.001831
699.00	-0.001831
700.00	-0.001831
701.00	-0.001953
702.00	-0.001831
703.00	-0.001709
704.00	-0.001831
705.00	-0.001953
706.00	-0.001831
707.00	-0.001831
708.00	-0.001831
709.00	-0.001831
710.00	-0.001953
711.00	-0.001953
712.00	-0.001953
713.00	-0.001953
714.00	-0.001831
715.00	-0.001953
716.00	-0.001831
717.00	-0.001831
718.00	-0.001953
719.00	-0.001831
720.00	-0.001953
721.00	-0.001953
722.00	-0.001831
723.00	-0.001831
724.00	-0.001831
725.00	-0.001953
726.00	-0.002075
727.00	-0.002075
728.00	-0.001831
729.00	-0.001831
730.00	-0.001953
731.00	-0.001831
732.00	-0.001953
733.00	-0.001831
734.00	-0.001831
735.00	-0.001831
736.00	-0.001953
737.00	-0.001953
738.00	-0.001953
739.00	-0.001953
740.00	-0.001953
741.00	-0.001953
742.00	-0.001953
743.00	-0.001953
744.00	-0.001953
745.00	-0.001953
746.00	-0.002075
747.00	-0.001953
748.00	-0.001953
749.00	-0.001831
750.00	-0.002075
751.00	-0.001831
752.00	-0.002075
753.00	-0.001953
754.00	-0.001953
755.00	-0.002075
756.00	-0.002075
757.00	-0.001953
758.00	-0.001953
759.00	-0.001831
760.00	-0.002075
761.00	-0.002197
762.00	-0.002075
763.00	-0.001953
764.00	-0.002197
765.00	-0.002075
766.00	-0.002075
767.00	-0.002197
768.00	-0.002075
769.00	-0.002197
770.00	-0.002075
771.00	-0.002075
772.00	-0.002075
773.00	-0.002197
774.00	-0.001953
775.00	-0.001953
776.00	-0.002075
777.00	-0.002197
778.00	-0.002075
779.00	-0.002075
780.00	-0.002075
781.00	-0.002075
782.00	-0.002075
783.00	-0.002197
784.00	-0.002075
785.00	-0.002075
786.00	-0.001831
787.00	-0.002075
788.00	-0.002075
789.00	-0.002075
790.00	-0.002075
791.00	-0.002197
792.00	-0.002197
793.00	-0.002197
794.00	-0.002075
795.00	-0.002075
796.00	-0.002197
797.00	-0.002319
798.00	-0.002197
799.00	-0.002197
800.00	-0.002319
801.00	-0.002319
802.00	-0.002197
803.00	-0.001953
804.00	-0.002319
805.00	-0.002075
806.00	-0.002075
807.00	-0.001953
808.00	-0.002075
809.00	-0.002197
810.00	-0.002197
811.00	-0.002075
812.00	-0.001831
813.00	-0.002197
814.00	-0.002197
815.00	-0.002197
816.00	-0.002197
817.00	-0.002197
818.00	-0.002197
819.00	-0.002075
820.00	-0.002197
821.00	-0.002319
822.00	-0.002319
823.00	-0.002075
824.00	-0.002075
825.00	-0.002197
826.00	-0.002075
827.00	-0.002075
828.00	-0.002075
829.00	-0.002075
830.00	-0.002197
831.00	-0.002075
832.00	-0.002197
833.00	-0.002197
834.00	-0.002197
835.00	-0.001953
836.00	-0.002075
837.00	-0.002197
838.00	-0.002075
839.00	-0.002197
840.00	-0.002075
841.00	-0.001953
842.00	-0.002075
843.00	-0.002075
844.00	-0.002075
845.00	-0.002075
846.00	-0.002075
847.00	-0.001953
848.00	-0.002197
849.00	-0.001953
850.00	-0.002075
851.00	-0.001953
852.00	-0.001953
853.00	-0.002075
854.00	-0.001953
855.00	-0.001953
856.00	-0.001953
857.00	-0.002075
858.00	-0.002075
859.00	-0.002075
860.00	-0.001953
861.00	-0.002075
862.00	-0.002075
863.00	-0.001953
864.00	-0.001953
865.00	-0.001953
866.00	-0.001831
867.00	-0.001953
868.00	-0.002075
869.00	-0.002197
870.00	-0.002075
871.00	-0.001953
872.00	-0.001953
873.00	-0.001953
874.00	-0.001953
875.00	-0.001709
876.00	-0.001953
877.00	-0.001709
878.00	-0.001953
879.00	-0.001953
880.00	-0.001953
881.00	-0.001831
882.00	-0.002075
883.00	-0.001953
884.00	-0.001709
885.00	-0.001953
886.00	-0.001709
887.00	-0.001709
888.00	-0.001831
889.00	-0.001831
890.00	-0.001587
891.00	-0.001831
892.00	-0.001709
893.00	-0.001831
894.00	-0.001587
895.00	-0.001831
896.00	-0.001709
897.00	-0.001831
898.00	-0.001587
899.00	-0.001587
900.00	-0.001465